TimeStamp,Delta_TP9,Delta_AF7,Delta_AF8,Delta_TP10,Theta_TP9,Theta_AF7,Theta_AF8,Theta_TP10,Alpha_TP9,Alpha_AF7,Alpha_AF8,Alpha_TP10,Beta_TP9,Beta_AF7,Beta_AF8,Beta_TP10,Gamma_TP9,Gamma_AF7,Gamma_AF8,Gamma_TP10,RAW_TP9,RAW_AF7,RAW_AF8,RAW_TP10,AUX_RIGHT,AUX_LEFT,Accelerometer_X,Accelerometer_Y,Accelerometer_Z,Gyro_X,Gyro_Y,Gyro_Z,HeadBandOn,HSI_TP9,HSI_AF7,HSI_AF8,HSI_TP10,Battery,Elements
2025-03-13 17:30:54.525,,,,,,,,,,,,,,,,,,,,,,,,,,,,,,,,,,,,,,,/muse/event/connected MuseS-9CF6
2025-03-13 17:30:55.025,0.1348726334217335,-0.3586730027156057,-0.1743301234415597,-0.173349181125481,0.2638653078222588,-0.1777126485554764,-0.1242736238641919,0.1326432509666478,1.040159034313436,0.3296148027054339,0.1548429295739321,0.713546187481146,1.070149116795112,-0.2703314059762065,-0.1743983140943973,0.5196052229435412,0.7606022247750839,-0.289891590291628,-0.6254971875782596,0.2632321746899986,794.1758241758242,794.5787545787546,805.8608058608058,811.5018315018315,858.6446886446887,716.4102564102565,0.102173,0.165588,0.980591,2.183228,0.418701,1.375732,1,1,1,1,1,95.000000
2025-03-13 17:30:55.536,0.3196585758260046,-0.3217396989268761,-0.1554632625885546,0.05237281714373912,0.3018428418055722,-0.2163623705732721,-0.1529220940946265,0.01195296773031434,1.121541943305981,0.3908940297044585,0.184804987214787,0.7356815103768567,1.044411214852155,-0.1930116378832329,-0.1402634496067021,0.5595864196676041,0.7857079068348028,-0.3256895159005105,-0.6809515671872733,0.3129136000819002,780.8791208791209,778.0586080586081,820.3663003663004,786.9230769230769,965.0183150183151,805.8608058608058,0.168762,0.276062,1.023743,-25.802460,15.716248,77.855988,1,1,1,1,1,95.000000
2025-03-13 17:30:55.643,,,,,,,,,,,,,,,,,,,,,,,,,,,,,,,,,,,,,,,/muse/elements/blink
2025-03-13 17:30:56.026,0.4494826172909464,0.6984708134621644,0.6725718981332642,0.1910645925441088,0.3609483743098747,0.01540006298138012,0.0939718991053958,0.08457264457561896,1.121541943305981,0.4210216370294681,0.3465433055727022,0.6948836243421525,1.043725837899726,-0.1721784156107793,-0.1244698842364618,0.6353687273519519,0.7476478754300352,-0.3482000041747889,-0.6494234482684303,0.3768426023382529,792.1611721611722,797.8021978021978,803.4432234432235,819.96336996337,832.0512820512821,692.6373626373627,0.051514,0.095703,0.995300,6.347809,3.925323,1.712189,1,1,1,1,1,95.000000
2025-03-13 17:30:56.534,0.4984543479047439,1.010309285082238,0.9641321093709807,0.4748690854022323,0.5065033357739478,0.05316864986913213,0.1259668212314334,0.2831418586964223,1.105391413451199,0.33931620583142,0.3080884376793028,0.5655282055028753,1.019152010261665,-0.1469691989944127,-0.1483021154248339,0.6167103151690321,0.743128070423416,-0.3444485181152026,-0.5983556409300729,0.2979464996348441,799.8168498168499,805.8608058608058,806.2637362637363,816.7399267399268,873.1501831501831,693.040293040293,0.061462,0.138245,1.034912,0.867310,5.211334,1.779480,1,1,1,1,1,95.000000
2025-03-13 17:30:56.759,,,,,,,,,,,,,,,,,,,,,,,,,,,,,,,,,,,,,,,/muse/elements/blink
2025-03-13 17:30:57.026,0.4984543479047439,1.132270742939727,0.9904439782698459,0.4748690854022323,0.5065033357739478,0.2519531342355733,0.1209307335665058,0.2831418586964223,1.105391413451199,0.3123659699889523,0.3052890773062348,0.5655282055028753,1.019152010261665,-0.1056737806568302,-0.1404228806277276,0.6167103151690321,0.743128070423416,-0.2261785278631309,-0.2652981822966176,0.2979464996348441,808.6813186813187,802.6373626373627,799.4139194139194,805.4578754578755,848.1684981684982,689.0109890109891,-0.079834,0.088562,1.011536,2.041168,-6.616974,-0.568237,1,1,1,1,1,95.000000
2025-03-13 17:30:57.526,0.4984543479047439,1.128353369223722,0.9346145694443811,0.4748690854022323,0.5065033357739478,0.2493688417549985,0.03390537255695707,0.2831418586964223,1.105391413451199,0.2454356019996203,0.2191164183983252,0.5655282055028753,1.019152010261665,-0.1240975011017048,-0.1211728190033975,0.6167103151690321,0.743128070423416,-0.187296002596786,-0.03363032324651344,0.2979464996348441,832.8571428571429,740.5860805860806,787.7289377289378,875.9706959706959,778.0586080586081,691.025641025641,-0.175293,0.097168,1.016968,-7.005768,41.937408,7.304840,1,1,1,1,1,95.000000
2025-03-13 17:30:57.553,,,,,,,,,,,,,,,,,,,,,,,,,,,,,,,,,,,,,,,/muse/elements/blink
2025-03-13 17:30:58.043,0.4984543479047439,1.025364971180435,0.6211108540385114,0.4748690854022323,0.5065033357739478,0.4113514923026187,0.02790994331222547,0.2831418586964223,1.105391413451199,0.2324631379421774,0.07271504010548706,0.5655282055028753,1.019152010261665,-0.0214265053225482,-0.1007868857957008,0.6167103151690321,0.743128070423416,-0.05487137818339547,0.1519963640514068,0.2979464996348441,815.5311355311355,800.2197802197802,800.6227106227107,800.6227106227107,781.6849816849817,648.7179487179487,-0.347290,0.056335,0.935730,-2.243042,-4.979553,1.607513,1,1,1,1,1,95.000000
2025-03-13 17:30:58.539,0.4984543479047439,1.112217243808657,0.7551259973550334,0.4748690854022323,0.5065033357739478,0.4933244127763485,0.1012933859937445,0.2831418586964223,1.105391413451199,0.2298633298553226,0.07271504010548706,0.5655282055028753,1.019152010261665,0.01606586315229048,-0.09699329120373537,0.6167103151690321,0.743128070423416,-0.01097689824743693,0.2936483693971365,0.2979464996348441,809.4871794871796,821.978021978022,815.934065934066,841.7216117216118,767.985347985348,659.5970695970697,-0.061829,0.085632,1.024292,2.474823,-26.213684,-5.286102,1,2,1,1,2,95.000000
2025-03-13 17:30:59.028,0.4984543479047439,0.790647833725606,0.7184300779135725,0.4748690854022323,0.5065033357739478,0.7183019251403632,-0.01699442123918512,0.2831418586964223,1.105391413451199,0.4059370009802705,-0.05624281667716061,0.5655282055028753,1.019152010261665,-0.01293236853285717,0.1576066758152804,0.6167103151690321,0.743128070423416,-0.312841651351336,-0.1830019974298299,0.2979464996348441,796.996336996337,808.6813186813187,800.2197802197802,803.040293040293,852.6007326007326,708.3516483516484,0.000122,0.129456,1.003235,1.562653,-4.037476,7.252502,1,2,1,1,2,95.000000
2025-03-13 17:30:59.526,0.4984543479047439,1.153753065238841,1.036485877832348,0.4748690854022323,0.5065033357739478,0.9222528017678666,0.1899666544458412,0.2831418586964223,1.105391413451199,0.4808467835341069,0.1833873176007937,0.5655282055028753,1.019152010261665,-0.1243913066520425,0.05216075487918122,0.6167103151690321,0.743128070423416,-0.2778890269078302,-0.3343206839359584,0.2979464996348441,798.2051282051282,805.0549450549451,809.0842490842491,813.919413919414,805.8608058608058,657.985347985348,0.049805,0.094788,1.010437,0.530853,-13.929291,4.216919,1,2,1,1,2,95.000000
2025-03-13 17:31:00.030,0.4984543479047439,1.023744180651151,0.9463662088240663,0.9558421037810779,0.5065033357739478,0.7514700336462431,0.3744300895586809,0.5404386012462853,1.105391413451199,0.5431181811526028,0.3545050473903532,0.5172624237688098,1.019152010261665,-0.1829281308799771,-0.06709710764855382,0.5233870183203749,0.743128070423416,-0.3038431418343838,-0.4541913414612181,0.3188275534064022,798.2051282051282,810.6959706959707,800.6227106227107,807.8754578754579,918.2783882783883,738.1684981684982,0.129761,0.108643,1.005798,0.583191,-2.586975,-0.687866,1,2,1,1,2,95.000000
2025-03-13 17:31:00.533,0.5256632821711399,0.955202890014888,0.9581055041149406,0.9484932566930898,0.0633863614061691,0.6364627389512462,0.4373903345142349,0.4524136394022634,0.6792715684523077,0.5707397771925559,0.3597303237917426,0.5455272061833863,0.9530368041204416,-0.2110265117943393,-0.2111092684137211,0.4885741088331516,0.6521841119853425,-0.3872954398233556,-0.536945062596091,0.3491767733425428,786.5201465201466,795.7875457875458,801.4285714285714,811.5018315018315,858.2417582417582,692.6373626373627,0.035706,0.108215,1.027222,0.523376,3.858032,2.773895,1,1,1,1,1,95.000000
2025-03-13 17:31:00.939,,,,,,,,,,,,,,,,,,,,,,,,,,,,,,,,,,,,,,,/muse/elements/blink
2025-03-13 17:31:01.026,0.5762211113316914,0.5781112056024049,0.6201480095736147,0.9423181854058802,0.1133600158166634,0.119348724387637,0.3650483415225299,0.5074829351633775,0.8196171068820285,0.4074877190154688,0.3185677667186233,0.9415502787090272,0.9360697874473418,-0.1892808932750098,-0.2540552782000736,0.5040983363638354,0.6443296510807409,-0.4999184497577916,-0.5468876319959611,0.345114310182113,885.2380952380953,757.5091575091575,796.996336996337,870.7326007326008,791.7582417582418,642.2710622710623,-0.301086,0.081116,0.913147,0.186920,27.821198,1.046753,1,1,1,1,1,95.000000
2025-03-13 17:31:01.532,0.5762211113316914,0.5181326488411586,0.582454343765846,0.8881240469046228,0.1133600158166634,0.1235926141026855,0.2720392590608876,0.4471782105639395,0.8196171068820285,0.4061999304800961,0.2667243825894538,0.9368024484724247,0.9360697874473418,-0.1393023048445032,0.2740698927293332,0.4907244080890469,0.6443296510807409,-0.6140156653952454,0.08574262163269243,0.386827619999392,768.7912087912088,797.3992673992674,803.4432234432235,776.8498168498169,795.3846153846154,699.0842490842491,-0.371155,0.072937,0.924072,2.123413,-0.538330,-0.785065,1,1,1,1,1,95.000000
2025-03-13 17:31:02.027,0.5542958966372066,0.5352509747519948,0.5050388240495148,0.8881240469046228,0.1313838062800528,0.003099251658215034,0.2511738688203636,0.4471782105639395,0.8196171068820285,0.3389212352493142,0.1165907160813747,0.9368024484724247,0.8654575015082304,-0.1903491768396137,0.4563066421054132,0.4907244080890469,0.5864401691223502,-0.6291157848937005,0.3105331522483838,0.386827619999392,777.2527472527473,764.3589743589744,788.9377289377289,781.2820512820513,832.4542124542124,689.4139194139194,-0.419189,0.067627,0.889893,0.239258,4.583282,-2.452393,1,1,1,1,1,95.000000
2025-03-13 17:31:02.525,0.5542958966372066,-0.04448189380947794,0.4888342159401868,0.8881240469046228,0.1313838062800528,0.08040205869920652,0.2414539778610868,0.4471782105639395,0.8196171068820285,0.2717882213912995,0.4611102889119531,0.9368024484724247,0.8654575015082304,0.5774601454638459,0.645112953844853,0.4907244080890469,0.5864401691223502,0.4185494984438906,0.4958047611247818,0.386827619999392,808.6813186813187,801.025641025641,802.6373626373627,812.7106227106227,834.4688644688645,691.8315018315019,-0.413757,0.060425,0.904297,-0.007477,-1.345825,0.657959,1,1,1,1,1,95.000000
2025-03-13 17:31:03.025,0.6185298199872602,-0.01108887958018144,0.4509025122026423,0.6925288011445844,0.9600495326177472,0.1311791835216236,0.1032468263265943,0.7734570121236389,0.9177668858504939,0.4764623181163294,0.4745715836302471,0.7998185827426935,0.8343792356140397,0.5506689759154093,0.6433760653983899,0.3823640786318833,0.6709891513860692,0.376235148692276,0.5823781960973274,0.198992789904021,801.025641025641,823.5897435897436,793.7728937728938,804.2490842490843,826.8131868131868,675.3113553113553,-0.408569,0.063354,0.909119,0.889740,-2.684174,-1.076660,1,1,1,1,1,95.000000
2025-03-13 17:31:03.527,0.5071108998828905,0.1010604717764411,0.2312495399611973,0.4884549197892586,0.8507164304531435,0.1503048131063475,-0.1212088223353448,0.5739601360725406,0.9231326853103625,0.5046728786705356,0.4745715836302471,0.8037972651914453,0.8009265447707226,0.4948025071342335,0.6291614074043538,0.4663220298019308,0.7425289468385763,0.4155740729790643,0.5445912497152808,0.3176775370993029,789.7435897435897,799.8168498168499,796.5934065934066,794.5787545787546,916.2637362637363,803.040293040293,-0.393311,0.079773,0.912170,0.426178,-4.321594,-0.583191,1,1,1,1,1,95.000000
2025-03-13 17:31:03.893,,,,,,,,,,,,,,,,,,,,,,,,,,,,,,,,,,,,,,,/muse/elements/blink
2025-03-13 17:31:04.025,0.3816363489117184,0.1951671113656337,0.1928760411625673,0.4884549197892586,0.8119946366946602,0.1938270560899935,-0.1118663989813949,0.5739601360725406,0.8617569455468896,0.5460900374946521,0.2899942027248624,0.8037972651914453,0.773113081972822,0.3857487043438311,0.5162865433319936,0.4663220298019308,0.7472999155033017,0.3422373344392621,0.4732062625441568,0.3176775370993029,812.3076923076924,798.6080586080586,801.4285714285714,806.2637362637363,818.7545787545788,655.5677655677656,-0.371582,0.081726,0.922485,0.067291,1.742096,-4.291687,1,1,1,1,1,95.000000
2025-03-13 17:31:04.525,0.3193833931212363,0.1641393898598478,0.1531496646647099,0.09069926739766578,0.6679330229933111,0.11144131673826,-0.2421991688657544,0.194035594430317,0.7790174736940267,0.5161088601817365,-0.1193051468922049,0.183457733159205,0.7570534893364439,0.24309281531754,0.4306221288973378,0.5366488693324712,0.8152379772267535,0.2096302586722976,0.2744346420184314,0.4107914662408738,795.3846153846154,798.2051282051282,801.4285714285714,788.1318681318681,837.2893772893773,722.4542124542124,-0.375000,0.053894,0.929260,0.142059,-4.815063,8.815155,1,1,1,1,1,95.000000
2025-03-13 17:31:05.025,0.3600115190004796,-0.040917784024213,-0.01841356294743872,0.09426417960146942,0.5929462333334622,-0.03706297794835122,-0.3933879702457144,0.1414915715978999,0.6859027747885154,0.3917383191936136,-0.0002983212530431559,0.1366031937851522,0.742393378457878,0.1369725849985257,0.277565902304207,0.5396298169968117,0.7862918248807037,-0.1244639936522628,0.06336372201210924,0.4380854506074944,779.2673992673992,798.6080586080586,805.8608058608058,799.0109890109891,838.0952380952381,621.7216117216118,-0.317688,-0.006714,0.960938,4.964600,3.431854,-4.785156,1,1,1,1,1,95.000000
2025-03-13 17:31:05.530,0.0737836302061048,-0.2586019597259674,-0.001856795832137132,1.322648763742392,0.4797254712492334,-0.2189095330894296,-0.3116810508969325,0.6926333397255323,0.6348187349718439,0.0526355026428653,0.2389549624552146,0.5315184056829643,0.6270279199863855,0.161171050953915,0.1826086601506772,0.219960463555628,0.3417981403942245,-0.3417491932028558,-0.1356789859230752,0.01008504405809982,796.1904761904763,800.6227106227107,803.4432234432235,803.040293040293,858.2417582417582,744.2124542124542,-0.407043,0.092529,0.903015,5.899200,2.841187,-4.807587,1,1,1,1,1,95.000000
2025-03-13 17:31:06.025,0.2591923678076016,-0.2546498812055857,-0.1258138628746773,1.131688668588871,0.4724474115855353,-0.2875137442949285,-0.174960448027119,0.6237503723828501,0.7063249507245319,0.03442593434749006,0.2292686362059982,0.5315184056829643,0.5282499203113403,0.1321355516207141,0.1003997255678493,0.2540080604432625,0.2329768150070246,-0.3774619063222004,-0.2262921574957276,-0.04794870916256846,797.8021978021978,805.8608058608058,800.2197802197802,803.040293040293,839.3040293040293,728.0952380952381,-0.423035,0.123962,0.885376,1.973877,-2.340240,-4.216919,1,1,1,1,1,95.000000
2025-03-13 17:31:06.526,0.3331688313912032,-0.01864996838866211,-0.0637526680044091,1.055002546949662,0.4616101054008305,-0.2569262022477124,-0.06444338713890821,0.5598375047495733,0.708386448863917,0.04226449408959985,0.2052778538956539,0.8097387202673421,0.4943040562384865,0.1027959801219897,0.06833188898159123,0.2697253764961128,0.2232208099150787,-0.3780503145331912,-0.1279691098745298,0.03260134467698931,791.7582417582418,798.6080586080586,802.6373626373627,814.3223443223443,620.9157509157509,554.0293040293041,-0.423462,0.126526,0.925354,0.725250,-5.727234,5.256195,1,1,1,1,1,95.000000
2025-03-13 17:31:07.032,0.7247330175978149,0.1402703123356345,-0.1618892396841747,0.9902782024704174,0.5451347863836455,-0.1391393206523821,-0.05080650209712514,0.7300018840174921,0.7325992150748974,0.05096063444867481,0.1961073012410204,1.231000961752443,0.4273943082634761,0.04788118584743266,0.1022249447220094,0.413841638586628,0.2221708803769464,-0.4068745569688221,-0.111440603847122,0.07057849442691196,786.9230769230769,795.7875457875458,817.948717948718,813.1135531135532,936.8131868131868,825.2014652014652,-0.312805,0.024658,0.955872,-6.400146,0.650482,1.428070,1,1,1,1,1,95.000000
2025-03-13 17:31:07.206,,,,,,,,,,,,,,,,,,,,,,,,,,,,,,,,,,,,,,,/muse/elements/blink
2025-03-13 17:31:07.525,0.8400400177456245,0.7072629801843505,0.4043712572895818,1.190504042126753,0.570185459690717,0.4861899472309404,0.1555456548778364,1.072001245466749,0.7325992150748974,0.1790213852953106,0.1433876121450286,1.231000961752443,0.4158933958749144,0.03765963705508733,0.08489648245393334,0.5697086129735991,0.2753854778184695,-0.3067390695727036,-0.1264507911472136,0.1586587827664269,817.948717948718,803.4432234432235,810.2930402930403,824.7985347985348,870.3296703296703,738.1684981684982,-0.471191,0.054321,0.835022,-5.816956,8.688049,8.620758,1,1,1,1,1,95.000000
2025-03-13 17:31:08.039,0.9827670565780242,0.8806070210911573,0.6989293408906342,1.397406050168862,0.6755028264635921,0.6128877700333253,0.2931993181615383,1.289535155251134,0.6848448672282639,0.2131712010993853,0.278561116648402,1.231000961752443,0.5172091454430765,0.04191776241160989,0.06351379340279552,0.713467394789894,0.3649187205208852,-0.1197538257838797,-0.193878192353599,0.2053213973656912,821.5750915750916,808.2783882783883,807.8754578754579,802.6373626373627,890.8791208791209,751.0622710622711,-0.450684,0.022034,0.888000,-0.934601,-5.390778,-6.258087,1,1,1,1,1,95.000000
2025-03-13 17:31:08.532,0.9827670565780242,0.8644468619617134,0.6982958906157395,1.156067216914393,0.6755028264635921,0.5940545050082717,0.2613303434590519,1.133261304786305,0.6848448672282639,0.3240409587510699,0.2919941458205536,1.041870573876098,0.5172091454430765,-0.06144469508690678,-0.004408582296735231,0.5463588015810397,0.3649187205208852,-0.1589336207621073,-0.206319305173382,0.01965823799016949,792.967032967033,797.3992673992674,804.6520146520147,799.0109890109891,799.8168498168499,616.8864468864469,-0.426392,0.039673,0.893799,3.147736,-1.570129,3.865509,1,1,1,1,1,95.000000
2025-03-13 17:31:09.026,0.6722023883572469,0.5636889551521314,0.5090033146421806,0.5349228130503533,0.2317611972513383,0.2082436682350265,0.09188318206384068,0.2814670207382112,0.5924746625862926,0.3538688425634829,0.2308347582748676,0.6325481510549179,0.390341383672187,-0.06678273162831053,-0.01120484249276169,0.230906420352708,-0.001988859836261158,-0.2127144389327864,-0.1753914976817712,-0.05326731139854804,800.2197802197802,798.6080586080586,805.0549450549451,801.8315018315019,921.9047619047619,776.8498168498169,-0.431641,0.053772,0.892334,-0.942078,-0.104675,2.370148,1,1,1,1,1,95.000000
2025-03-13 17:31:09.526,0.4984486197296779,-0.04591998714279066,-0.05847211725016493,0.3526887598112753,0.3794384158392248,-0.1642496317881793,-0.1341331090094601,0.3452456400689268,0.600189217328732,0.346266194504968,0.2580559992046529,0.6628719909269225,0.3898479885755177,-0.113922577977026,-0.04363960514647664,0.2522343091353527,0.01639863470232132,-0.4645937427029626,-0.173308891926646,-0.0589153811197545,801.025641025641,804.6520146520147,803.040293040293,808.2783882783883,906.1904761904763,804.6520146520147,-0.448364,0.069153,0.932983,1.443024,-3.850555,-0.186920,1,1,1,1,1,95.000000
2025-03-13 17:31:10.025,0.3147428993934443,-0.1473372985181495,-0.1823264499117865,0.310202462011182,0.3179565110125637,-0.1474272173818292,-0.0922140150215531,0.3931866271166343,0.6031649762980584,0.3465842991524977,0.2082576957045004,0.6403901883104007,0.4214311696073294,-0.1201486663082834,-0.1106070444171929,0.2616867983189025,-0.01800349782496996,-0.5145171551364548,-0.2057636085944611,-0.05506576473085527,798.6080586080586,801.025641025641,800.6227106227107,797.8021978021978,904.981684981685,697.4725274725275,-0.423645,0.062195,0.895264,1.114044,2.026215,0.515900,1,1,1,1,1,95.000000
2025-03-13 17:31:10.525,0.08451569814425507,-0.3115313072890345,-0.04608071806360885,0.5750227585285027,0.2252250488390686,-0.2244370424912007,-0.1238266888510864,0.3878398799374979,0.4512139496785078,0.1640372763399043,0.3027526255233213,0.7434674736235471,0.4403450125978429,-0.1626000196444152,-0.1183917651291953,0.2324786162827544,-0.05111158360446125,-0.5640818526218658,-0.2245791101948606,-0.1422738279744492,805.4578754578755,786.1172161172161,809.4871794871796,804.6520146520147,848.974358974359,692.2344322344322,-0.419312,0.057007,0.891235,4.486084,2.130890,-10.617065,1,1,1,1,1,95.000000
2025-03-13 17:31:11.025,0.133144209722225,-0.06080397696733606,0.3855000508711476,0.7156795987381072,-0.07155114464803737,-0.3430383547424448,0.02220351566388513,0.3452829393993911,0.3472140685126527,-0.07562598476697119,0.3799720493090518,0.7855688211936214,0.4363219733076201,0.105165342548615,-0.07329691089575709,0.1977299899038488,-0.09304083457907573,-0.1418819172607679,-0.2766584654790087,-0.202630396210159,805.8608058608058,792.967032967033,804.2490842490843,819.1575091575091,803.4432234432235,667.6556776556777,-0.485229,0.047974,0.846069,7.977753,1.899109,-12.045135,1,1,1,1,1,95.000000
2025-03-13 17:31:11.533,0.9138987453845361,0.3473292732468678,0.893222246544644,0.8643082791007691,0.5743265536815788,0.02727321829449075,0.4057899277356127,0.2323969617719414,0.8379931560249037,0.3797475305576489,0.3916845118868972,0.7850355157684044,0.668299434893568,0.4485065479554375,0.009125407972307183,0.1234009953865764,0.211113980016998,0.4091664478832371,-0.1722806397189086,-0.3504746392008193,803.8461538461539,814.3223443223443,802.6373626373627,809.4871794871796,901.3553113553114,765.5677655677656,-0.520996,0.042480,0.839233,-3.020630,18.034058,-1.121521,1,1,1,1,1,95.000000
2025-03-13 17:31:12.025,1.030733001862226,0.4037941439515558,0.9683895775373714,0.7673492353222302,0.6400482109181969,0.1625625819351417,0.4933477010949137,0.1550526977594678,0.8622035767514078,0.4922307560656227,0.3973025129654596,0.7279362419836222,0.7634170728029642,0.5790468529680409,0.170730441298499,0.1217118935509967,0.4281839018922621,0.5951085252890619,-0.04768022538317584,-0.3410025231209638,773.6263736263736,787.3260073260074,817.1428571428571,807.0695970695971,832.8571428571429,891.6849816849817,-0.563171,0.044922,0.809753,-31.335297,-10.781555,47.567444,1,1,1,1,1,95.000000
2025-03-13 17:31:12.541,1.102106608309281,0.4778680557151199,0.9035596533460298,0.4213646457933752,0.679434184341739,0.3380303318033035,0.498467586989176,0.09063490821339668,0.8680180152559354,0.5566617886008146,0.3147027899401241,0.09449181263372224,0.7974412593430432,0.63450670739014,0.2715785922384462,0.09169082804525694,0.4710831135737618,0.642559065832401,0.08380589976210007,0.1463829956717847,801.8315018315019,790.1465201465202,830.0366300366301,836.8864468864469,788.5347985347986,712.3809523809524,-0.520081,0.039673,0.845276,-18.549957,-2.198181,21.069641,1,1,1,1,1,95.000000
2025-03-13 17:31:13.036,0.9245237818125425,0.6857532571818853,0.7396939149818785,0.4213646457933752,0.3919541397716958,0.4113879195821224,0.4091527277898928,0.09063490821339668,0.667047678339234,0.5544801849146326,0.2806434119659997,0.09449181263372224,0.7454483336717058,0.5178954099892522,0.2402636051297764,0.09169082804525694,0.517634053955086,0.5636208115882292,0.07064574088327481,0.1463829956717847,807.4725274725275,804.2490842490843,811.9047619047619,804.6520146520147,961.7948717948718,807.0695970695971,-0.502136,0.052734,0.843079,-12.927399,-8.942261,28.232422,1,1,1,1,1,95.000000
2025-03-13 17:31:13.525,0.7535259988909729,0.9116944234168317,0.8266758748121199,0.6918403997695579,0.412620316237472,0.4821591086870535,0.4748937740625077,0.2696080068073597,0.7139517213996045,0.6608590502397477,0.2402494552396265,0.5321112641575249,0.647870202662099,0.4062840290610752,0.2187677304307656,0.4916717971723592,0.5281797564981127,0.4948396416128394,0.1024355129319874,0.3435127315879203,802.2344322344322,780.8791208791209,832.8571428571429,829.6336996336996,821.1721611721612,753.4798534798535,-0.418274,0.032288,0.880798,-17.480774,-9.839478,29.129639,1,1,1,1,1,95.000000
2025-03-13 17:31:14.025,0.6569307533746637,1.064137715577659,1.003155631002625,0.7526763049191996,0.3286458713943733,0.5921566503392455,0.6160495045001125,0.444879970892587,0.7831125341514117,0.6770695844288107,0.2029744726625184,0.6563359631581995,0.5692501089881782,0.2098465646984347,0.244314428853863,0.7090492446996022,0.4921389749485047,0.4396339440800634,0.1069939988666044,0.5728253649459141,812.7106227106227,811.5018315018315,800.6227106227107,801.4285714285714,804.6520146520147,572.1611721611722,-0.389282,-0.025085,0.926392,-5.824432,1.001892,11.925507,1,1,1,1,1,95.000000
2025-03-13 17:31:14.540,0.7230103680719709,1.021976985067401,0.9034520675368702,0.783368514714244,0.3818756642519421,0.5496226016997234,0.4978711458937097,0.3798543416912035,0.9584470046237943,0.7090052553923325,0.2063924770015264,0.8166163572923818,0.5335551090661181,0.09708993713626145,0.3636143624724978,0.6632827859525994,0.434095323356351,0.2721408328363947,0.1573162779065033,0.5068002308383058,829.2307692307693,788.5347985347986,781.2820512820513,822.3809523809524,889.6703296703297,846.1538461538462,-0.425781,-0.019409,0.897949,4.687958,3.416901,-9.316101,1,1,1,1,1,95.000000
2025-03-13 17:31:15.025,0.7604752044886424,0.9113431184801765,0.8089711544776279,0.7402029942023315,0.3926050595248051,0.490064418675223,0.4982386111773857,0.3697325172364746,0.9584470046237943,0.7484681928572655,0.3541510196865013,0.8098595763381411,0.5037536445505147,0.1040653879109194,0.4101853019818003,0.634818779212773,0.3796913003798337,0.1576031120152164,0.2734678970459636,0.5127444967620484,825.2014652014652,820.3663003663004,809.4871794871796,802.2344322344322,810.6959706959707,656.7765567765568,-0.473511,-0.072205,0.893616,-1.069183,26.056671,2.340240,1,1,1,1,1,95.000000
2025-03-13 17:31:15.526,0.8327775185998066,0.6834145722510747,0.6928797632367072,0.7760146858545203,0.4796453179496151,0.2516466818765611,0.4340554216125369,0.2453169488766992,0.9584470046237943,0.5741561400807784,0.3447460328972842,0.7599563176006831,0.5687727953811722,0.2814428556692413,0.5160258786653938,0.5765634519703638,0.3497324081637346,0.1940653222183081,0.4532948375088706,0.4115213342029389,805.0549450549451,793.3699633699634,803.040293040293,793.7728937728938,890.4761904761905,722.0512820512821,-0.591370,-0.029846,0.797974,0.523376,-3.693542,-1.428070,1,1,1,1,1,95.000000
2025-03-13 17:31:16.026,0.597384954209416,0.2443947952206259,0.4307634699756163,0.8788151266066759,0.529518055849701,-0.0833927774772219,0.3224477419353845,0.2506312045850515,0.8741739016340054,0.4626783378749366,0.3447460328972842,0.7335574102915302,0.5140432768839152,0.4965811649623239,0.5180404881586983,0.5826069094394442,0.3528444826975999,0.3950314461167066,0.4646804421148606,0.3252906740155707,809.8901098901099,797.8021978021978,811.5018315018315,816.3369963369963,848.1684981684982,671.2820512820513,-0.618469,-0.032227,0.760254,4.807587,24.037933,0.575714,1,1,1,1,1,95.000000
2025-03-13 17:31:16.525,0.597384954209416,0.07177691692692939,0.2367586142338438,0.8788151266066759,0.529518055849701,-0.09200019909626847,0.08889085684956828,0.2506312045850515,0.8741739016340054,0.4491853009318537,-0.01892079618169129,0.7335574102915302,0.5140432768839152,0.6048677378602026,0.5069280842865783,0.5826069094394442,0.3528444826975999,0.6323571824182501,0.4924669262163422,0.3252906740155707,806.6666666666667,793.3699633699634,803.040293040293,805.0549450549451,871.5384615384615,753.8827838827839,-0.705200,-0.015320,0.692993,-0.919647,-2.669220,-0.381317,1,1,1,1,1,95.000000
2025-03-13 17:31:17.025,0.597384954209416,-0.02987487701541766,-0.1464764075036717,0.7751073520963678,0.529518055849701,-0.1364026026009316,-0.3590451823746935,0.3775244863963665,0.8741739016340054,0.1156201567057401,0.0244088077872526,0.4112940164889957,0.5140432768839152,0.6157654722399907,0.5393288843856207,0.5215674331792933,0.3528444826975999,0.6869231800422692,0.5467937465288103,0.3674446663294069,792.5641025641025,789.7435897435897,804.6520146520147,790.5494505494506,789.7435897435897,595.934065934066,-0.675110,-0.074341,0.702881,54.490967,4.448700,-69.452057,1,1,1,1,1,95.000000
2025-03-13 17:31:17.528,0.868609536936902,0.488191764989294,0.5751777660205137,1.139606915671789,0.9757844710822351,-0.02572124504218885,0.03343638258838383,0.9054731948336935,0.6472731420836577,0.1854420466640017,0.1955827329871388,0.5694693600189842,0.9988218152056134,0.5733633658953526,0.5357049284449412,0.5827948273721375,0.2448092212068374,0.6764238937776302,0.5398762423698406,0.3518332244430021,797.3992673992674,809.0842490842491,811.0989010989011,821.978021978022,875.5677655677656,799.0109890109891,-0.633667,-0.032471,0.714600,26.423035,-5.502930,-13.899384,1,1,1,1,1,95.000000
2025-03-13 17:31:18.025,0.7059450842398679,0.6825240801472442,0.8469889848926492,1.17994220104434,0.7974083621120405,0.3949010918694538,0.6307601804959136,0.9724781759008068,0.7350508035508252,0.4398570311726421,0.5299147269667175,0.7871637932861094,0.8381214276734349,0.5441698178836407,0.4996028781477004,0.5640981937528695,0.07415559204370574,0.4548348161190158,0.4260560502138526,0.2826956016039607,801.4285714285714,802.6373626373627,805.4578754578755,807.0695970695971,921.0989010989011,776.0439560439561,-0.622803,-0.034058,0.786255,2.130890,-0.478516,-2.527161,1,1,1,1,1,95.000000
2025-03-13 17:31:18.525,0.6631979465493451,0.6496061424229383,0.8355945160784313,1.03379886700024,0.7358867586451444,0.3806199113593967,0.6550329691888744,0.8474582918029863,0.7379827577485183,0.4433641588559875,0.5314436444487494,0.7471407811972587,0.712822912278234,0.4179780814851348,0.2502404398175523,0.5038484449659512,0.02964022976707228,0.05159377994009887,-0.01281490068196465,0.06349505926144525,786.1172161172161,822.3809523809524,788.5347985347986,791.7582417582418,821.5750915750916,631.7948717948718,-0.585388,0.009766,0.811768,27.252960,12.822723,-37.384033,1,1,1,1,1,95.000000
2025-03-13 17:31:19.032,0.7143599452835129,0.3945438077775735,0.6977466072561124,0.925667071333804,0.5135447843561505,0.3076465454417524,0.6561480007815815,0.6071430049003149,0.6763376689113335,0.4764107475519136,0.5551880433274853,0.7894039935634715,0.5704890299647428,0.4311060622631145,0.09782812418188133,0.4331549934765662,0.07880170290304229,0.2282847064161437,-0.1711375241823171,0.04423059000759143,823.1868131868132,804.2490842490843,820.7692307692308,811.0989010989011,850.989010989011,712.7838827838829,-0.703064,-0.082214,0.692810,14.662018,-1.353302,-15.663910,1,1,1,1,1,95.000000
2025-03-13 17:31:19.528,0.7891183802675611,0.3679600114064538,0.6001618122526878,0.9593158658529206,0.4817186045360924,-0.04180109833070156,0.2823463516716544,0.4074918638185223,0.5366483929733813,0.3906972515016444,0.3794934606954898,0.7173046543323277,0.5274838386313225,0.3579763432325611,0.01660913465762926,0.4035970234724701,0.156462512855116,0.2967601830286124,-0.05082632352562109,0.01674071536215488,789.3406593406594,799.0109890109891,811.9047619047619,795.7875457875458,840.1098901098901,724.4688644688645,-0.697144,-0.043762,0.674194,1.547699,-9.772186,5.600128,1,1,1,1,1,95.000000
2025-03-13 17:31:20.026,1.080309888962751,0.529752194538279,0.8432301971031407,1.067173569315306,0.5889055168914917,0.02081430841185682,0.3074709053651127,0.5768888127740872,0.7985558134701495,0.3694368747253904,0.3763254878458678,0.8343477534497807,0.6305447929535527,0.4196045044388519,0.116991717526159,0.4012461527806792,0.2372899859637794,0.3221833210308404,-0.003615675335295099,0.04671350570718671,822.7838827838829,835.2747252747253,790.1465201465202,880.8058608058608,869.1208791208792,935.6043956043957,-0.272705,0.076355,0.807373,-3.506622,-98.820953,39.028931,1,1,1,1,1,95.000000
2025-03-13 17:31:20.536,1.615293791657418,0.7011452308523084,1.170783804519641,1.207437211453714,1.048214440163375,0.02750822382720419,0.3137604093522341,0.6646909390042732,0.818793542976274,0.3000386483957548,0.370436078174653,0.9041634807850444,0.4497410271065623,0.3664656510980175,0.114583243710407,0.3695086143060538,-0.06467348569115974,0.2152356451819576,-0.0504850487460171,0.009740342880157734,799.0109890109891,818.3516483516484,807.4725274725275,813.919413919414,579.4139194139194,200.6593406593407,-0.056702,-0.041870,0.967163,-3.551483,-0.680389,15.813446,1,1,1,1,1,95.000000
2025-03-13 17:31:21.025,1.615293791657418,1.058415198018581,1.187204012820844,1.130949040884159,1.048214440163375,0.7401662032298882,0.3237587142035412,0.6752245053235488,0.818793542976274,0.2313509439816259,0.2930080648575634,0.9041634807850444,0.4497410271065623,0.2450059859803033,0.08404881213078563,0.3538193403661603,-0.06467348569115974,-0.1604941597498875,-0.2644398933560658,0.00601595477671433,807.0695970695971,758.3150183150184,791.7582417582418,916.2637362637363,1436.446886446887,1622.197802197802,-0.190186,0.171387,0.950439,-10.721741,44.270172,3.768311,1,1,1,1,1,95.000000
2025-03-13 17:31:21.141,,,,,,,,,,,,,,,,,,,,,,,,,,,,,,,,,,,,,,,/muse/elements/blink
2025-03-13 17:31:21.530,1.615293791657418,1.25915711433789,1.156946437911791,1.281746350370534,1.048214440163375,0.9261712732218466,0.3503010698195084,0.8022726327714611,0.818793542976274,0.2231827899264713,0.1663913193892343,0.900980064518919,0.4497410271065623,-0.04324187165245211,0.1170152715606711,0.320717604354763,-0.06467348569115974,-0.384692709719745,-0.04234933887683573,-0.08029886270323529,811.9047619047619,813.919413919414,817.5457875457876,835.6776556776557,869.5238095238095,931.5750915750916,-0.485107,0.072754,0.839294,4.680481,5.106659,-10.407715,1,1,1,1,1,95.000000
2025-03-13 17:31:22.036,1.615293791657418,1.245431818409122,0.6440633405059648,1.281746350370534,1.048214440163375,0.9754013270975568,0.2907087091784401,0.8022726327714611,0.818793542976274,0.1727173104247394,0.2185335559526649,0.900980064518919,0.4497410271065623,-0.1318244023957348,0.1487742554144813,0.320717604354763,-0.06467348569115974,-0.163018160373745,0.26048639011457,-0.08029886270323529,798.6080586080586,811.5018315018315,796.996336996337,711.5750915750916,697.4725274725275,1.208791208791209,-0.369324,-0.036621,0.829102,11.633911,0.037384,-16.957397,1,1,1,1,1,95.000000
2025-03-13 17:31:22.525,1.615293791657418,0.7707136197843236,0.4356308579202807,1.281746350370534,1.048214440163375,0.3461913496603065,0.2557048431004223,0.8022726327714611,0.818793542976274,0.1827520044362048,0.21347374572942,0.900980064518919,0.4497410271065623,0.15231644762168,0.1718528389823706,0.320717604354763,-0.06467348569115974,-0.02348607843351717,0.3101415765703334,-0.08029886270323529,789.7435897435897,796.5934065934066,808.6813186813187,817.948717948718,449.6703296703297,39.08424908424909,-0.439819,0.095276,1.007751,16.770477,-0.755157,-49.406738,1,1,1,1,1,95.000000
2025-03-13 17:31:23.026,0.6538520874499394,0.98817059786461,0.5649507325353814,1.281746350370534,0.3775219020883107,0.6615533757446936,0.3306809696824229,0.8022726327714611,0.7000031032510997,0.4296430902046728,0.1820095296501844,0.900980064518919,0.4486132024970415,0.3330389605031639,0.1696554294720541,0.320717604354763,0.4488130811858054,0.1598385303143665,0.1974939324867537,-0.08029886270323529,806.6666666666667,789.7435897435897,821.978021978022,863.0769230769231,782.4908424908425,823.992673992674,-0.376038,0.114075,0.940063,6.968384,4.224396,-16.224670,1,1,1,1,1,95.000000
2025-03-13 17:31:23.525,0.773967906785373,1.160274680545331,0.8256755175737768,1.281746350370534,0.3937209317566294,0.8572040950944466,0.6273376389599243,0.8022726327714611,0.7954018232641605,0.6651698439465686,0.7334506040608431,0.900980064518919,0.5241994998890955,0.3321750016552958,0.1825120549533689,0.320717604354763,0.439861734292713,0.3067948892723288,-0.01672982269232667,-0.08029886270323529,806.2637362637363,808.6813186813187,804.2490842490843,815.1282051282052,1412.271062271062,1618.571428571429,-0.367920,0.025330,0.858276,0.904694,1.106567,-4.740295,1,1,1,1,1,95.000000
2025-03-13 17:31:24.026,0.7333261717406637,1.229537561509101,0.9140426811685154,1.281746350370534,0.2883900751223244,0.928517203574845,0.7352364691292463,0.8022726327714611,0.8469964529877242,0.7099300065754968,0.7287237831925613,0.900980064518919,0.5635502076055773,0.3605679953669044,0.1838196663090308,0.320717604354763,0.4929951508511317,0.361222570964209,-0.07562009429778432,-0.08029886270323529,801.025641025641,809.0842490842491,809.8901098901099,840.5128205128206,934.7985347985348,1187.435897435897,-0.463623,0.035400,0.869263,-1.472931,12.508698,-1.689758,1,1,1,1,1,95.000000
2025-03-13 17:31:24.525,0.5977832009906301,1.127402508045335,0.8552695023919559,1.281746350370534,0.1929950974353341,0.8296821773457076,0.6965969739014589,0.8022726327714611,0.8416024478754772,0.7141837610435841,0.7402995462907198,0.900980064518919,0.6660321064358562,0.3242877883342054,0.146442120450768,0.320717604354763,0.5970439136563387,0.321911081425203,-0.08770991418906834,-0.08029886270323529,772.014652014652,795.7875457875458,805.8608058608058,815.934065934066,911.0256410256411,797.8021978021978,-0.476685,0.060669,0.869324,3.005676,-2.392578,-1.981354,1,1,1,1,1,95.000000
2025-03-13 17:31:25.027,0.4130344290223639,0.7606915241995705,0.5880453208052157,1.281746350370534,0.07756839807335182,0.4493099512069482,0.3935299974816046,0.8022726327714611,0.8364510453587016,0.406937154253759,0.7123318438897313,0.900980064518919,0.7466110233386436,0.3159573829986673,0.0859977128282487,0.320717604354763,0.6286292850609598,0.142506202350242,-0.1559030259528571,-0.08029886270323529,796.996336996337,801.025641025641,803.4432234432235,815.934065934066,846.959706959707,670.0732600732601,-0.481628,0.080566,0.868469,-1.323395,-5.031891,-1.540222,1,1,1,1,1,95.000000
2025-03-13 17:31:25.525,0.4059434395881468,0.2932094522266188,0.099586507951131,0.4809152504576695,0.3024384272551459,0.08043917254882925,-0.03914545438673955,0.4345954826514564,0.8563419258969446,0.2276969745193725,0.4001135091158292,0.3944698495500474,0.7618898903567114,0.2968153040060951,0.1118044820131413,0.2887869209803328,0.5529288366654121,0.04588880262044161,-0.1939075312860006,-0.07930465601502208,789.7435897435897,796.996336996337,798.2051282051282,811.5018315018315,821.5750915750916,800.6227106227107,-0.460266,0.088867,0.874329,5.532837,1.884155,-2.983246,1,1,1,1,1,95.000000
2025-03-13 17:31:26.026,0.3565731914228489,-0.1839671934641669,-0.1567671706257006,0.334433673285428,0.3114322528964072,-0.0989487349522814,-0.2326754538126991,0.4423607129292342,0.8317125322355867,0.2590139479032606,0.1884318107301093,0.4455044639940933,0.6788617732631553,0.2597547930251624,0.1186141133932547,0.2864140166421597,0.2188148432288997,0.04876540785672068,-0.2330607786594347,0.07962885205616951,809.0842490842491,803.8461538461539,806.6666666666667,815.5311355311355,826.4102564102565,728.0952380952381,-0.477112,0.090515,0.858948,-1.854248,-1.555176,5.301056,1,1,1,1,1,95.000000
2025-03-13 17:31:26.529,0.224370784533229,-0.2469278358462135,-0.3224831717365486,0.3789216933062174,0.2434575308153012,-0.1423017174555327,-0.2835531326458555,0.4183674509213002,0.7738201016408662,0.2415714851766741,0.1000085704281465,0.5247737496483411,0.5450814772174284,0.2909865328322211,0.08931222653890371,0.2712059177028626,0.1107183979263096,0.09277683959130903,-0.2916832789151678,-0.001516636602092077,785.3113553113553,800.6227106227107,809.8901098901099,816.3369963369963,851.3919413919414,719.2307692307693,-0.478149,0.107605,0.870850,2.041168,-2.504730,-0.239258,1,1,1,1,1,95.000000
2025-03-13 17:31:27.037,0.2285730100933775,-0.1978932147829268,-0.3253864708484963,0.388890329348422,0.1456677723946669,-0.2393690085910711,-0.3310355036094494,0.3546833278847807,0.6985186836285256,0.2415714851766741,0.1868130504305071,0.4729404736157249,0.3863235602910571,0.259078371002288,0.08121026799478981,0.2667820020075004,-0.0277758291018907,0.1168552895176922,-0.299944705378053,-0.001256433360198042,795.7875457875458,799.8168498168499,805.4578754578755,806.2637362637363,836.4835164835165,749.4505494505495,-0.460144,0.094299,0.876953,-1.502838,-2.130890,2.751465,1,1,1,1,1,95.000000
2025-03-13 17:31:27.527,0.3373262944584635,-0.2633535365019571,-0.3194795032366551,0.3317279970940017,0.1113333754547253,-0.2431734811481472,-0.2623549162763311,0.1319844906304016,0.7318739800887414,0.1706387977575317,0.2152470285399661,0.5926392813831241,0.2271937707422839,0.1852073538105868,-0.01447920018249445,0.3124921582956339,-0.07097316293775516,0.02840887839710521,-0.2471058321438487,-0.1066962194171764,802.6373626373627,797.8021978021978,802.2344322344322,797.3992673992674,904.981684981685,745.8241758241759,-0.456299,0.099731,0.880981,0.336456,-1.338348,1.353302,1,1,1,1,1,95.000000
2025-03-13 17:31:28.026,0.4306289149483771,-0.2211768470491506,-0.4243550866413586,0.3174578390321704,0.06534958364215507,-0.2391962249780566,-0.3414879591416163,-0.0111776133472871,0.7426113485405434,0.0429489547205976,0.1755438726251717,0.6522813064767564,0.2206489591541232,0.08762563085964814,0.03199924215014957,0.3193738867468687,-0.08623069359664388,-0.0893939089304448,-0.2171712662169306,-0.02922609365522849,800.2197802197802,796.5934065934066,799.8168498168499,798.2051282051282,879.1941391941392,747.032967032967,-0.445312,0.096619,0.881897,-0.889740,-1.151428,-0.844879,1,1,1,1,1,95.000000
2025-03-13 17:31:28.530,0.4212864721260294,-0.3001063115864825,-0.2016466287296265,0.2855672116363355,-0.005350712762661097,-0.2655128428469335,-0.3777676931412294,0.2292461370319975,0.7393729358534342,0.2458518943171497,0.1432359189546994,0.6829155939142088,0.3353031412947802,0.0503535221881606,0.04264961602679217,0.2877464257421459,-0.06080982590540386,-0.2033536235385134,-0.2238933046557928,0.003276449590794827,793.7728937728938,786.5201465201466,825.2014652014652,799.0109890109891,798.6080586080586,680.952380952381,-0.455017,0.087280,0.900757,-5.652466,7.551575,4.366455,1,1,1,1,1,95.000000
2025-03-13 17:31:28.639,,,,,,,,,,,,,,,,,,,,,,,,,,,,,,,,,,,,,,,/muse/elements/blink
2025-03-13 17:31:29.028,0.4441679313797495,0.4811977638837743,0.3906896854966213,0.3767506429720704,-0.1860009640681714,-0.04817097546562701,0.1004796972984109,0.342516456020142,0.359245269847456,0.2668729907454468,0.1619970652378411,0.6096486683077237,0.4311587620812499,0.1721349634458944,0.1169282065401927,0.2239103188892475,-0.04387921215553593,-0.09852453800158149,0.08848410216007617,0.05239589228823475,827.2161172161173,799.0109890109891,810.2930402930403,813.1135531135532,900.1465201465202,740.5860805860806,-0.587280,0.037537,0.795227,-4.119720,8.949738,4.635620,1,1,1,1,1,95.000000
2025-03-13 17:31:29.526,0.3736715825793496,0.5864009674878364,0.4976958792257016,0.4749685659549784,-0.02115532862271668,0.05467601317275734,0.1642447119540039,0.5801538908520746,0.1825059849629441,0.2668729907454468,0.186262172109676,0.5361647363945667,0.4496065509851767,0.1940003781750828,0.1550696184887024,0.1247767610982076,0.01032774665564892,0.05101135010294954,0.2762359155835249,0.001404356463704377,837.6923076923077,822.7838827838829,794.5787545787546,819.5604395604396,778.8644688644689,669.6703296703297,-0.582031,0.064941,0.803589,0.463562,-4.388885,-0.680389,1,1,1,1,1,95.000000
2025-03-13 17:31:30.038,0.3736715825793496,0.8939931104856601,0.7418517890094014,0.4749685659549784,-0.02115532862271668,0.3679996153924625,0.3271590985372422,0.5801538908520746,0.1825059849629441,0.2706561825286466,0.2642618233652901,0.5361647363945667,0.4496065509851767,0.3395280741532648,0.223680111518628,0.1247767610982076,0.01032774665564892,0.2156911165089098,0.3213963221353807,0.001404356463704377,795.3846153846154,804.6520146520147,807.8754578754579,797.8021978021978,899.3406593406594,771.2087912087912,-0.569641,0.082886,0.804504,-2.452393,-3.850555,8.209534,1,1,1,1,1,95.000000
2025-03-13 17:31:30.527,0.3736715825793496,0.8435724391407127,0.8086431555442266,1.394017662660642,-0.02115532862271668,0.4202135743720594,0.2738027565561588,1.074910674397462,0.1825059849629441,0.4686517450856454,0.5427793346010391,0.7621239912175396,0.4496065509851767,0.288380906962152,0.1356743787172278,0.1347095066929365,0.01032774665564892,0.1408087161636224,0.113739157755463,-0.02663680159264488,787.3260073260074,798.6080586080586,829.6336996336996,847.3626373626374,1583.919413919414,1622.197802197802,-0.395325,-0.032227,0.961548,-79.299011,-15.230255,142.859344,1,1,1,1,1,95.000000
2025-03-13 17:31:31.025,1.226299769230352,0.9679408017835966,1.144936794807516,1.394017662660642,1.230524764385803,0.7645658875428248,0.724855167573489,1.074910674397462,0.9386436866624076,0.5750660919685111,0.7055981951177006,0.7621239912175396,0.4302146250483248,0.2294069580124945,0.1646575758410706,0.1347095066929365,0.009377795252854664,0.03513421392151158,-0.1671767736531606,-0.02663680159264488,820.3663003663004,827.2161172161173,794.5787545787546,853.0036630036631,846.5567765567765,950.9157509157509,-0.339905,0.068665,1.002319,-39.073792,9.914246,89.512329,1,1,1,1,1,95.000000
2025-03-13 17:31:31.525,1.228340689562865,1.030669894184087,1.249525457540443,1.449996670948809,1.211082753344234,0.8688514087141247,0.8537918386479086,1.09246088293472,0.9909676056259331,0.7266138344487445,0.690654839808172,0.7592634680891195,0.7211333024746527,0.3631738887858231,0.1030149765685146,0.1131140492276607,0.1362577671270784,-0.01018129745738139,-0.4080081100243522,-0.05947323558785958,810.2930402930403,804.2490842490843,808.6813186813187,812.3076923076924,781.2820512820513,463.3699633699634,-0.437378,0.074341,0.874695,-2.033691,3.521576,8.112335,1,1,1,1,1,95.000000
2025-03-13 17:31:32.025,1.127341564929196,1.018571181972878,1.198820543778651,1.449996670948809,1.111261181197301,0.9038856175624629,0.9232748221485807,1.09246088293472,0.9909676056259331,0.7020665987035282,0.7547746604485012,0.7592634680891195,0.7254360669184826,0.3953696725103164,0.3171382084013484,0.1131140492276607,0.1416832661486852,0.05528952548411795,-0.1015184397873149,-0.05947323558785958,804.2490842490843,808.6813186813187,808.6813186813187,837.2893772893773,1171.318681318681,1320.40293040293,-0.368408,0.028442,0.914734,-3.304749,-6.243134,-10.676880,1,1,1,1,1,95.000000
2025-03-13 17:31:32.527,1.089179462122408,1.001576301174023,0.6529781650589503,1.449996670948809,0.8116909061260519,0.6575323633465524,0.6355947575474755,1.09246088293472,0.9624812252601846,0.6654257055065388,0.5049502583615791,0.7592634680891195,0.7148184478998326,0.4484419265738668,0.1753556461706764,0.1131140492276607,0.2284677630801895,0.09346745677598978,-0.09946964773481323,-0.05947323558785958,793.3699633699634,796.1904761904763,805.0549450549451,728.4981684981685,90.65934065934066,0,-0.233276,0.006592,0.989136,-3.259888,5.667419,19.320068,1,1,1,1,1,95.000000
2025-03-13 17:31:33.025,0.9346428723570067,1.066538481627491,0.7944553935591528,1.449996670948809,0.7242626147755677,0.3864198867538565,0.5726878006851638,1.09246088293472,0.8383513426923455,0.521389802632276,0.5049502583615791,0.7592634680891195,0.6491409957050077,0.2901663214424039,0.05948372550534384,0.1131140492276607,0.2538091465246686,0.0370605711776043,-0.2258746979195597,-0.05947323558785958,758.7179487179487,760.7326007326008,792.967032967033,748.6446886446887,884.8351648351648,805.0549450549451,-0.267151,0.104675,0.917358,-3.401947,17.697601,32.030640,1,1,1,1,1,95.000000
2025-03-13 17:31:33.144,,,,,,,,,,,,,,,,,,,,,,,,,,,,,,,,,,,,,,,/muse/elements/blink
2025-03-13 17:31:33.531,1.021008506723949,1.168389798344252,0.7897072673032468,1.449996670948809,0.5167457503838829,0.03775122613446167,0.4704666318520765,1.09246088293472,0.6503713967716189,0.3011830444200527,0.3708139984982717,0.7592634680891195,0.5145373425913177,0.2732613168821761,0.04666749161330332,0.1131140492276607,0.3551614764156294,-0.005600749278902038,-0.3754506675077435,-0.05947323558785958,813.919413919414,812.3076923076924,803.040293040293,815.5311355311355,777.2527472527473,778.0586080586081,-0.315063,0.018738,0.962219,4.725342,-1.128998,-15.716248,1,1,1,1,1,95.000000
2025-03-13 17:31:34.025,1.021008506723949,1.25975147476803,0.7767649283578514,1.449996670948809,0.5167457503838829,-0.1088790295144011,0.3450280665461475,1.09246088293472,0.6503713967716189,0.2138283558605926,0.2200806778453856,0.7592634680891195,0.5145373425913177,0.1960894836505606,0.162744448577699,0.1131140492276607,0.3551614764156294,-0.06624723934426495,-0.2570860480325196,-0.05947323558785958,832.4542124542124,815.5311355311355,786.9230769230769,808.2783882783883,943.2600732600733,830.4395604395604,-0.225891,0.018616,0.975769,72.652130,-6.108551,-157.573700,1,1,1,1,1,95.000000
2025-03-13 17:31:34.539,1.021008506723949,1.245381806068067,0.9839943592596724,1.449996670948809,0.5167457503838829,0.09365491652396814,0.3793811106323963,1.09246088293472,0.6503713967716189,0.2106848261412472,0.3272194545365148,0.7592634680891195,0.5145373425913177,0.3639221305323074,0.2485525211102064,0.1131140492276607,0.3551614764156294,0.1021119928137917,-0.07382030561127775,-0.05947323558785958,830.8424908424909,823.1868131868132,788.5347985347986,811.9047619047619,799.0109890109891,366.6666666666667,-0.348572,-0.002197,0.923828,39.507446,2.474823,-88.181458,1,1,1,1,1,95.000000
2025-03-13 17:31:35.025,1.021008506723949,1.387879879401736,1.253058923812367,1.449996670948809,0.5167457503838829,0.9021000547528321,0.8810311863748097,1.09246088293472,0.6503713967716189,0.3510528765246582,0.3966558603209828,0.7592634680891195,0.5145373425913177,0.4038063402670239,0.1903528104218359,0.1131140492276607,0.3551614764156294,0.1635686307107672,-0.02334832123469728,-0.05947323558785958,810.2930402930403,793.7728937728938,801.4285714285714,766.7765567765568,431.1355311355312,40.29304029304029,-0.422546,-0.003235,0.902222,2.796326,2.654266,-4.598236,1,1,1,1,1,95.000000
2025-03-13 17:31:35.535,1.021008506723949,1.29093591495514,1.37479210226473,1.449996670948809,0.5167457503838829,0.7836551588488336,1.014915484413366,1.09246088293472,0.6503713967716189,0.3577578573378612,0.3562325173881966,0.7592634680891195,0.5145373425913177,0.3818474419403008,-0.005789632047349083,0.1131140492276607,0.3551614764156294,0.2143529206323265,-0.04669769669062412,-0.05947323558785958,798.2051282051282,804.6520146520147,803.040293040293,813.5164835164835,1181.794871794872,1192.271062271062,-0.414368,0.080933,0.859314,8.022614,-4.157104,-2.444916,1,2,1,1,2,95.000000
2025-03-13 17:31:35.940,,,,,,,,,,,,,,,,,,,,,,,,,,,,,,,,,,,,,,,/muse/elements/blink
2025-03-13 17:31:36.025,1.021008506723949,1.114582521531005,1.270032319918572,1.449996670948809,0.5167457503838829,0.7127414899691803,1.006963387465686,1.09246088293472,0.6503713967716189,0.288793571517069,0.3903734314181613,0.7592634680891195,0.5145373425913177,0.3668735902729469,-0.05011325076855142,0.1131140492276607,0.3551614764156294,0.2224548532266807,-0.1653532795868255,-0.05947323558785958,781.6849816849817,795.3846153846154,798.2051282051282,808.2783882783883,689.4139194139194,412.1978021978022,-0.473267,0.244385,0.888855,0.276642,0.777588,1.383209,1,2,1,1,2,95.000000
2025-03-13 17:31:36.526,1.021008506723949,0.800043164586444,0.7497839741911242,1.449996670948809,0.5167457503838829,0.3428519935566857,0.4552870846130544,1.09246088293472,0.6503713967716189,0.1617664249339003,0.1685193219285743,0.7592634680891195,0.5145373425913177,0.3184874457629363,0.0008968833801322967,0.1131140492276607,0.3551614764156294,0.1785310084645071,-0.2947160139686327,-0.05947323558785958,787.3260073260074,807.8754578754579,809.8901098901099,815.5311355311355,816.3369963369963,678.9377289377289,-0.427307,0.196472,0.875305,-1.786957,-4.844971,9.203949,1,2,1,1,2,95.000000
2025-03-13 17:31:37.037,1.021008506723949,0.3166247059353537,0.1333997280253133,1.449996670948809,0.5167457503838829,0.03303492439192193,-0.0865196960185742,1.09246088293472,0.6503713967716189,-0.0399945306632613,0.1530256855436865,0.7592634680891195,0.5145373425913177,0.2937488004089544,0.07100147377423675,0.1131140492276607,0.3551614764156294,0.1558552985066551,-0.3840418976277761,-0.05947323558785958,813.5164835164835,802.6373626373627,800.2197802197802,813.5164835164835,903.7728937728938,898.5347985347986,-0.436340,0.097900,0.870422,-6.901093,-1.315918,11.716156,1,2,1,1,2,95.000000
2025-03-13 17:31:37.525,0.3461192910762004,0.2963068140387811,-0.01582214006499287,0.9109739523878168,-0.06614924855218225,-0.08328148415174771,-0.433656267632281,0.7562865318097615,0.7127433034453388,-0.02138216967003145,0.08152358968124195,0.7303268298653899,0.5549015489909412,0.2481663245252552,0.0853538804926104,0.4361535575513134,0.3576868260195017,0.1481447960453211,-0.3171940655684945,0.01211530198294584,774.8351648351648,806.2637362637363,802.6373626373627,815.5311355311355,782.893772893773,587.0695970695971,-0.351135,0.024231,0.890137,-3.110352,-2.601929,-4.515991,1,1,1,1,1,95.000000
2025-03-13 17:31:38.025,0.5400487429669304,0.3481743678210532,0.1459151032381644,0.9109739523878168,0.5017255808194729,0.1432233357459302,-0.1774060494223856,0.7562865318097615,0.8440248394762684,0.3575304929623721,0.1136369823379273,0.7303268298653899,0.6069604503247116,0.3017773055457151,0.0768157612504909,0.4361535575513134,0.3586941798533801,0.1632604378744598,-0.2548155396081649,0.01211530198294584,819.5604395604396,811.5018315018315,801.4285714285714,828.021978021978,1112.087912087912,1487.619047619048,-0.498413,0.172546,0.877258,0.770111,-9.488068,8.082428,1,1,1,1,1,95.000000
2025-03-13 17:31:38.526,0.7375145262958058,0.886788369020479,0.5039423582738572,0.9671198214260146,0.7780469526064411,0.5851185422876585,0.2223130299927855,0.7912069761650302,0.824252336423651,0.5207925822671425,0.4207583276570717,0.7276789141229154,0.6209749443733906,0.2763200573353546,0.09657098657593334,0.3902769650100401,0.3949502853140675,0.0953682382576856,-0.1222115753428871,0.004451153027682079,801.4285714285714,791.3553113553114,798.6080586080586,792.5641025641025,880.8058608058608,719.6336996336996,-0.467468,0.018494,0.853516,6.213226,0.650482,-15.544281,1,1,1,1,1,95.000000
2025-03-13 17:31:39.025,0.7930778508499431,0.9490465901394622,0.6091519923920937,0.9671198214260146,0.8167532104978611,0.6180300723732134,0.4388926076812454,0.7912069761650302,0.7911510531679501,0.6033199094817338,0.4197312443959755,0.7276789141229154,0.6343339651279083,0.2794329472186662,0.1423044637377572,0.3902769650100401,0.4042446628313711,0.0411379691439933,-0.1628754088492089,0.004451153027682079,796.1904761904763,800.6227106227107,794.981684981685,764.7619047619048,398.4981684981685,23.77289377289377,-0.437744,0.133606,0.858337,-2.557068,-3.058014,-0.022430,1,1,1,1,1,95.000000
2025-03-13 17:31:39.525,0.7502011000132033,0.9323164199578164,0.6900041337360143,0.9671198214260146,0.7152853845200943,0.5117537476195541,0.542815108605639,0.7912069761650302,0.6176795775604641,0.6329451608363958,0.4189574657705221,0.7276789141229154,0.5989679139487504,0.3595721968479307,0.1332800824821902,0.3902769650100401,0.4106493864407514,-0.007125465620115707,-0.2171354839357621,0.004451153027682079,828.4249084249085,809.4871794871796,803.040293040293,783.2967032967033,947.2893772893773,761.5384615384615,-0.392700,0.049011,0.886108,-0.074768,-2.130890,-2.130890,1,1,1,1,1,95.000000
2025-03-13 17:31:40.035,0.6055287257176336,0.5400429104808241,0.5482505343919911,0.9671198214260146,0.4280838600876153,0.1201596109989252,0.4412571608135516,0.7912069761650302,0.917822019139844,0.5047720564015823,0.2534217509119509,0.7276789141229154,0.7296062770737251,0.3756710377273609,0.06276384744798298,0.3902769650100401,0.2984402779699112,-0.0515042659317054,-0.4289874795760732,0.004451153027682079,795.7875457875458,787.7289377289378,823.992673992674,767.1794871794872,502.051282051282,58.42490842490842,-0.223694,0.040649,0.987976,-63.283691,2.444916,166.478577,1,1,1,1,1,95.000000
2025-03-13 17:31:40.525,1.176229846091632,0.7230302607762531,0.7462769400703344,0.9671198214260146,0.9964353088395184,0.4906599782903073,0.6633927325684759,0.7912069761650302,1.108400053587687,0.6081259527254911,0.4259084187517822,0.7276789141229154,0.8450162828057943,0.4065623668461789,0.0389357163996517,0.3902769650100401,0.3794180523814153,-0.1204921295137332,-0.4348953722885854,0.004451153027682079,808.6813186813187,805.8608058608058,804.2490842490843,794.981684981685,1039.56043956044,1127.802197802198,-0.434753,0.077026,0.907410,-33.952179,4.149628,56.711578,1,1,1,1,1,95.000000
2025-03-13 17:31:41.025,1.305107292027064,0.8021022852837583,0.7277544820709478,0.9671198214260146,1.06005887523995,0.6227145691565468,0.6583056857820333,0.7912069761650302,1.112071337407895,0.4918686542090271,0.3284417639869127,0.7276789141229154,0.81461058734578,0.3134277822641823,0.05254683629347932,0.3902769650100401,0.3534148049585171,-0.2130777472115855,-0.395303635240398,0.004451153027682079,797.8021978021978,813.5164835164835,799.8168498168499,783.6996336996338,859.8534798534798,693.8461538461538,-0.472961,0.093262,0.872009,-5.061798,0.426178,7.357178,1,1,1,1,1,95.000000
2025-03-13 17:31:41.525,1.215657829260023,0.9639547142993226,0.9995145168589423,0.9671198214260146,1.060673581652555,0.8239325569031158,0.8123303607419321,0.7912069761650302,1.017814683212308,0.4736214216839327,0.3470581585729962,0.7276789141229154,0.6372660310774035,0.2803353046631055,0.3793893858040321,0.3902769650100401,0.2992576487310035,-0.0249487637164137,0.2596572084112138,0.004451153027682079,801.4285714285714,803.040293040293,806.6666666666667,830.4395604395604,894.1025641025641,923.919413919414,-0.452942,0.031677,0.873840,-0.575714,-4.897308,5.600128,1,1,1,1,1,95.000000
2025-03-13 17:31:42.025,0.865339139178787,0.6869472522464491,0.7558995289759266,0.9671198214260146,0.7625876479890092,0.5892026553490685,0.5180095937751247,0.7912069761650302,0.8974433865712175,0.4203878065543381,0.09904224518385936,0.7276789141229154,0.4951185480166461,0.2413250064393495,0.3859074666721866,0.3902769650100401,0.05923288849512572,0.05890234140711861,0.2577223357012365,0.004451153027682079,780.4761904761905,794.1758241758242,790.952380952381,699.4871794871796,726.4835164835165,9.670329670329672,-0.396606,-0.041870,0.888245,30.408173,-10.729218,-60.614471,1,1,1,1,1,95.000000
2025-03-13 17:31:42.526,0.2867807607330635,0.6796652055445004,0.7824660679639663,0.9671198214260146,0.4920426465441902,0.5424216316258398,0.5208343195460075,0.7912069761650302,0.7425215260137624,0.4711567739418691,0.1794548763632746,0.7276789141229154,0.4751181911601729,0.2094121714943801,0.3099283253644512,0.3902769650100401,0.08795108183939575,0.08189364441774277,0.1828897641762431,0.004451153027682079,793.7728937728938,801.8315018315019,781.6849816849817,788.5347985347986,946.0805860805862,971.8681318681319,-0.326843,0.041016,0.963867,74.760590,19.880829,-140.451813,1,1,1,1,1,95.000000
2025-03-13 17:31:43.031,0.7515507572503449,0.9728176181037084,1.101705471130593,0.9671198214260146,0.2416788729761284,0.7867978541417349,0.9546732825031813,0.7912069761650302,0.520227974754631,0.4963538037022788,0.3491898441658105,0.7276789141229154,0.5681410604816383,0.448808278334226,0.2098362636178636,0.3902769650100401,0.1281685041367986,0.182671772251741,0.01336363643631734,0.004451153027682079,849.7802197802198,836.4835164835165,792.967032967033,836.4835164835165,817.948717948718,772.014652014652,-0.429932,0.045898,0.876282,19.125671,-4.523468,-37.002716,1,1,1,1,1,95.000000
2025-03-13 17:31:43.525,1.062248824256137,1.098472195954495,1.215848797007345,0.9671198214260146,0.4950434631007544,0.9022810975662683,1.045057620774954,0.7912069761650302,0.630330825690621,0.6882372399842163,0.3561639278611334,0.7276789141229154,0.5770627478142233,0.5379005729384854,0.1418599268526573,0.3902769650100401,0.2532114534698207,0.2923409852791923,0.06249244855799841,0.004451153027682079,751.0622710622711,792.967032967033,815.5311355311355,762.7472527472528,886.4468864468864,756.3003663003664,-0.461609,0.050659,0.829468,-2.243042,-10.759125,3.536530,1,1,1,1,1,95.000000
2025-03-13 17:31:44.025,1.206717774776208,1.136557767513205,1.211447449002743,0.9671198214260146,0.6311612377009143,0.9002321977617345,1.02314601355806,0.7912069761650302,0.603403179598678,0.6656498395625156,0.3598905953996283,0.7276789141229154,0.624909037465057,0.5410196704085706,0.1559552626043509,0.3902769650100401,0.2639329921644142,0.2795352355924985,0.03337015868584983,0.004451153027682079,793.3699633699634,812.7106227106227,794.5787545787546,865.4945054945056,1211.208791208791,1474.322344322344,-0.188599,-0.075317,0.970459,-14.385376,-12.441406,52.861023,1,1,1,1,1,95.000000
2025-03-13 17:31:44.479,,,,,,,,,,,,,,,,,,,,,,,,,,,,,,,,,,,,,,,/muse/elements/blink
2025-03-13 17:31:44.534,1.274346467342646,0.915757384507478,0.9717137582866434,0.9671198214260146,0.7356849329915379,0.5677575030931635,0.5645675830989141,0.7912069761650302,0.5871608804857678,0.6271669429265749,0.187495285051976,0.7276789141229154,0.5445649918201796,0.33827130344484,0.07839711778140566,0.3902769650100401,0.2783522745583726,0.1298970311585858,-0.08664154240230634,0.004451153027682079,827.6190476190476,786.5201465201466,779.6703296703297,740.989010989011,316.3003663003663,0,-0.399292,-0.010193,1.043884,-25.817413,14.796600,64.921112,1,1,1,1,1,95.000000
2025-03-13 17:31:45.025,1.290882759393202,0.812627546453266,1.084696599064264,0.9671198214260146,0.8027584342068457,0.3453488030215672,0.3831944877962726,0.7912069761650302,0.5851914372593913,0.5041163656776323,0.5027798863549537,0.7276789141229154,0.5564226730591677,0.1218504559518034,0.157554356014059,0.3902769650100401,0.2332634324938257,-0.1001283731335761,-0.07004828340573668,0.004451153027682079,790.5494505494506,797.3992673992674,792.967032967033,708.7545787545788,0,0,-0.352478,0.116333,0.871826,-9.974060,0.994415,33.548431,1,1,1,1,1,95.000000
2025-03-13 17:31:45.525,1.290882759393202,0.6558541412081517,1.209575830109149,0.9671198214260146,0.8027584342068457,0.2448587327593602,0.5123885394123882,0.7912069761650302,0.5851914372593913,0.06389797388162746,0.5027798863549537,0.7276789141229154,0.5564226730591677,0.06807048314151137,0.1860666052062614,0.3902769650100401,0.2332634324938257,-0.474620603883056,0.005601952847851386,0.004451153027682079,793.3699633699634,799.0109890109891,811.0989010989011,726.4835164835165,846.1538461538462,123.6996336996337,-0.417175,-0.024292,0.835022,19.222870,8.688049,-32.434387,1,1,1,1,1,95.000000
2025-03-13 17:31:46.027,1.290882759393202,0.6558541412081517,1.339370064042308,0.9671198214260146,0.8027584342068457,0.2448587327593602,0.7097316046688017,0.7912069761650302,0.5851914372593913,0.06389797388162746,0.4863678859916467,0.7276789141229154,0.5564226730591677,0.06807048314151137,0.3191477368618441,0.3902769650100401,0.2332634324938257,-0.474620603883056,0.1559839674403063,0.004451153027682079,810.2930402930403,807.0695970695971,815.1282051282052,943.6630036630037,819.96336996337,1079.450549450549,-0.488464,0.128418,1.001648,-5.517883,1.487885,-8.022614,1,1,1,1,1,95.000000
2025-03-13 17:31:46.526,0.9018872189210576,0.6612142658898444,1.137743538059661,0.9671198214260146,0.5271866854874668,0.2016464975959953,0.5909856375164876,0.7912069761650302,0.3375580496295306,-0.0837249002781378,0.4125726498726963,0.7276789141229154,0.7031008325028593,0.006114260475372633,0.2716753126985438,0.3902769650100401,0.3779835021847069,0.1179489008040049,0.03036825009217465,0.004451153027682079,794.981684981685,793.7728937728938,796.5934065934066,829.6336996336996,1079.047619047619,1425.970695970696,-0.492493,0.120117,0.878235,0.971985,3.715973,10.893707,1,1,1,1,1,95.000000
2025-03-13 17:31:47.027,0.931208894609177,0.7343244962799188,0.6295902590996731,0.9671198214260146,0.3052003460103594,0.6896570146270123,0.2016900725886614,0.7912069761650302,0.5671820679122355,0.431177920267912,0.2544147646940512,0.7276789141229154,0.738334933762174,0.1451182403320813,0.09434437963523305,0.3902769650100401,0.3785692174062615,0.2231461037896613,-0.227665228067006,0.004451153027682079,838.4981684981685,811.5018315018315,788.9377289377289,874.7619047619048,359.8168498168498,42.30769230769231,-0.620178,-0.044067,0.701050,18.587341,9.704895,-19.260254,1,1,1,1,1,95.000000
2025-03-13 17:31:47.528,0.8964040974935125,0.8932984777607523,0.7947787318696233,0.9671198214260146,0.2389950976713887,0.9308104640934749,0.4153682120611842,0.7912069761650302,0.718330954790273,0.6873557164510469,0.4618555828773089,0.7276789141229154,0.7885497690089247,0.381644810567409,0.1564870673419432,0.3902769650100401,0.447165120214178,0.4214612887396185,0.08568929334545039,0.004451153027682079,785.7142857142858,798.6080586080586,791.7582417582418,733.3333333333334,296.1538461538462,0,-0.596375,0.127380,0.552612,2.422485,-4.134674,-3.835602,1,1,1,1,1,95.000000
2025-03-13 17:31:48.025,0.934064846902779,0.9313033024494101,0.806320031656239,0.9671198214260146,0.03109595578199333,0.97257325818518,0.4507806964177741,0.7912069761650302,0.6472422499825073,0.6887506637590162,0.4618555828773089,0.7276789141229154,0.8227475494658397,0.5175899360766857,0.1574663858266404,0.3902769650100401,0.488644325755107,0.4320970889102995,0.1405330416953546,0.004451153027682079,784.5054945054945,772.8205128205128,797.3992673992674,770.8058608058608,1341.355311355311,1449.74358974359,-0.561890,0.036255,0.912231,-86.484222,-15.476990,133.184357,1,1,1,1,1,95.000000
2025-03-13 17:31:48.524,1.274917143308884,1.236933020259098,1.1095051201537,0.9671198214260146,0.7092926307664545,1.178581522503745,0.5367538249300385,0.7912069761650302,0.6075960812368156,0.7606316710524462,0.4628279190637533,0.7276789141229154,0.8793365897469577,0.5679711073094967,0.2769991326989998,0.3902769650100401,0.5965325901520269,0.4116136972415003,0.2065695531687161,0.004451153027682079,810.6959706959707,814.7252747252747,785.7142857142858,939.2307692307693,1356.263736263736,1622.197802197802,-0.491699,0.218201,1.113892,-36.434479,-11.461945,58.520966,1,1,1,1,1,95.000000
2025-03-13 17:31:49.029,1.274917143308884,1.226192762992076,1.161893243741972,0.9671198214260146,0.7092926307664545,1.155841752749887,0.458077844048666,0.7912069761650302,0.6075960812368156,0.7322675194132992,0.4156836505119872,0.7276789141229154,0.8793365897469577,0.4758698790704749,0.3229403580140505,0.3902769650100401,0.5965325901520269,0.2149839758802113,0.1456163118761301,0.004451153027682079,813.1135531135532,801.025641025641,790.5494505494506,772.014652014652,625.3479853479854,236.9230769230769,-0.537842,0.178284,1.071838,0.067291,-17.121887,4.897308,1,1,1,1,1,95.000000
2025-03-13 17:31:49.525,1.274917143308884,1.203661783095971,1.243490464626208,0.9671198214260146,0.7092926307664545,1.152244605753209,0.5325458557283329,0.7912069761650302,0.6075960812368156,0.7279458988140493,0.4672332273246452,0.7276789141229154,0.8793365897469577,0.3673808390130646,0.381086126069957,0.3902769650100401,0.5965325901520269,0.2005242364747673,0.08460049532644337,0.004451153027682079,815.5311355311355,826.8131868131868,795.7875457875458,873.1501831501831,1085.494505494506,1413.479853479854,-0.130615,-0.210815,0.999756,52.763824,-21.892090,-156.698914,1,1,1,1,1,95.000000
2025-03-13 17:31:50.025,0.890563047878885,1.081969508710781,0.9464121208688585,0.9671198214260146,0.8412619210380221,0.9992940586356499,0.9552601862825153,0.7912069761650302,0.8168013983802771,0.5652326931348961,0.4704327330419359,0.7276789141229154,0.6991702654335185,0.320751102617482,0.2643132315667738,0.3902769650100401,0.269658344659785,0.2013701483182148,-0.08880339416829335,0.004451153027682079,789.3406593406594,792.5641025641025,805.4578754578755,737.3626373626374,392.051282051282,0,-0.272400,0.099487,0.829651,3.745880,5.816956,-14.998474,1,1,1,1,2,95.000000
2025-03-13 17:31:50.525,0.9377393762879088,1.06424841025933,1.117697691088629,0.9671198214260146,0.8685923906617745,0.827635556736964,0.9333114261826079,0.7912069761650302,0.8743038909831811,0.4968268721258537,0.5055129825248383,0.7276789141229154,0.8462452292180322,0.3129456243016066,0.2000602045494612,0.3902769650100401,0.2955909910371561,0.1525342182133698,-0.1306663414989064,0.004451153027682079,786.1172161172161,802.6373626373627,807.8754578754579,733.3333333333334,1300.25641025641,1197.106227106227,-0.302368,-0.026306,0.869141,1.435547,3.379517,-3.357086,1,1,1,1,2,95.000000
2025-03-13 17:31:51.036,0.9377393762879088,1.414187338554461,1.105324437982305,0.9671198214260146,0.8685923906617745,1.231906050740503,0.88083664268344,0.7912069761650302,0.8743038909831811,0.6043249051644054,0.5209155241704098,0.7276789141229154,0.8462452292180322,0.237979482301565,0.1254771867177997,0.3902769650100401,0.2955909910371561,-0.05223674187872886,-0.1191753021802141,0.004451153027682079,783.6996336996338,818.7545787545788,788.5347985347986,787.7289377289378,1620.586080586081,1621.794871794872,-0.319153,0.164734,0.913879,20.867767,4.007568,-65.893097,1,1,1,1,2,95.000000
2025-03-13 17:31:51.525,0.8186926589924896,1.411978584539288,1.172123353976721,0.9671198214260146,0.887369633014642,1.178994445367591,0.8179572428203372,0.7912069761650302,0.8854005125915321,0.5592676366703411,0.6640377052115476,0.7276789141229154,0.9363315245662808,0.2829168848182508,0.09498437539621603,0.3902769650100401,0.5187312613390246,0.05536470254263896,-0.09351834461154321,0.004451153027682079,821.978021978022,792.1611721611722,808.6813186813187,868.7179487179487,807.0695970695971,877.5824175824176,-0.451599,0.018250,1.029968,22.505188,15.013428,-55.896606,1,1,1,1,2,95.000000
2025-03-13 17:31:52.025,0.7334402378541728,1.39299048399593,1.199157171188331,0.9671198214260146,0.817658412353277,1.141868036689504,0.9400695064272446,0.7912069761650302,0.6992102968553,0.5797394401659378,0.7087979163698166,0.7276789141229154,1.085630949931921,0.4961279215358257,0.08826456210384181,0.3902769650100401,0.6259657721120466,0.3193031170010313,-0.09675028026125028,0.004451153027682079,791.3553113553114,788.5347985347986,796.1904761904763,755.4945054945055,262.7106227106227,2.417582417582418,-0.427246,0.042236,0.866699,20.643463,-9.630127,-36.359711,1,1,1,1,2,95.000000
2025-03-13 17:31:52.525,0.790059926724233,1.214346883989405,1.214072845802018,0.9671198214260146,0.7861554897451797,0.8694200888184627,0.9842771766947562,0.7912069761650302,0.7056856001645657,0.4585874657467217,0.7202646188143677,0.7276789141229154,1.058567014100691,0.5295313953688665,0.3287444380184166,0.3902769650100401,0.6168803535091242,0.412783595154285,0.133279632175718,0.004451153027682079,798.6080586080586,799.4139194139194,802.2344322344322,779.2673992673992,1046.007326007326,790.1465201465202,-0.566650,0.091431,0.786194,15.753632,1.024323,-31.305389,1,1,1,1,1,95.000000
2025-03-13 17:31:53.026,0.8962253028603188,1.125782894994838,1.094241339480923,0.9671198214260146,0.7254102220182411,0.9171863109807615,0.83976101845605,0.7912069761650302,0.5961648788813037,0.2258869463327599,0.5669400460994423,0.7276789141229154,1.138945560049297,0.5981242451709551,0.4664535186040285,0.3902769650100401,0.5951479773021426,0.4885208893355993,0.333248740387167,0.004451153027682079,811.9047619047619,796.5934065934066,805.0549450549451,811.0989010989011,896.1172161172161,913.4432234432235,-0.551575,0.089294,0.779114,-3.573914,0.770111,-1.480408,1,1,1,1,1,95.000000
2025-03-13 17:31:53.525,0.92584740629648,0.654344170342662,0.6705966597266578,0.9671198214260146,0.66174442570433,0.5645788575834035,0.4087794123485115,0.7912069761650302,0.5071685166254853,0.1973919790837116,0.3995880978019974,0.7276789141229154,1.120404127304997,0.4282428877520674,0.4715501657088518,0.3902769650100401,0.6063793808116913,0.1985795175479566,0.3639240258126449,0.004451153027682079,777.6556776556777,793.3699633699634,811.5018315018315,796.996336996337,798.6080586080586,678.5347985347986,-0.613342,0.025085,0.783875,-23.050995,1.884155,30.968933,1,1,1,1,1,95.000000
2025-03-13 17:31:54.025,1.241000846884028,0.6970724727950764,0.5888125281847738,0.9671198214260146,1.306784669872838,0.3488578517185634,0.5323102740683032,0.7912069761650302,0.8399486024032701,-0.195729568156387,0.5428406365191245,0.7276789141229154,0.6020447394795371,0.4302465964497729,0.4195029036544165,0.3902769650100401,0.4053508190071217,0.2639773509704098,0.4889389216490047,0.004451153027682079,801.4285714285714,790.952380952381,799.0109890109891,792.5641025641025,891.6849816849817,793.7728937728938,-0.498047,0.041199,0.889648,-7.424469,-17.503204,6.938477,1,1,1,1,1,95.000000
2025-03-13 17:31:54.525,1.222948497373514,0.5473583702334911,0.3693973256176721,0.9671198214260146,1.277250288757629,0.2775775516591122,0.4055558727207437,0.7912069761650302,0.8399486024032701,-0.06402579738734514,0.4846914371497829,0.7276789141229154,0.5802684172369889,0.3559941006821136,0.3091238974483222,0.3902769650100401,0.3840042748019309,0.2756682158382042,0.3933551563863964,0.004451153027682079,772.014652014652,787.3260073260074,799.8168498168499,707.5457875457876,253.8461538461538,0,-0.511658,-0.015320,0.874634,22.176208,-12.104950,-44.449615,1,1,1,1,1,95.000000
2025-03-13 17:31:55.033,1.19796991348244,0.553523743662969,0.5363007673053182,0.9671198214260146,1.164343265290736,0.2914670206757842,0.3645072908603786,0.7912069761650302,0.8399486024032701,0.003131613299410163,0.4990955352191155,0.7276789141229154,0.5611309954408118,0.2623672542172787,0.2479490795306786,0.3902769650100401,0.3689065485444656,0.3043502975832053,0.3615493094057863,0.004451153027682079,807.8754578754579,811.9047619047619,815.1282051282052,873.5531135531136,923.1135531135532,853.0036630036631,0.030396,0.039001,1.101135,38.154144,-27.836151,-125.131836,1,1,1,1,1,95.000000
2025-03-13 17:31:55.525,1.164514749247002,0.2700347089874856,0.8756043326143411,0.9671198214260146,0.9397452794640883,0.122347162697498,0.350031624639836,0.7912069761650302,0.5721419761938213,0.003131613299410163,0.3190873688762997,0.7276789141229154,0.5031418759719091,0.2352127385214697,0.07450047124703596,0.3902769650100401,0.3224045423393552,0.2149024871940987,-0.03573593663965702,0.004451153027682079,792.967032967033,813.1135531135532,799.8168498168499,800.6227106227107,849.3772893772895,869.5238095238095,-0.140137,0.100830,0.923523,4.942169,3.970184,10.213318,1,1,1,1,1,95.000000
2025-03-13 17:31:56.025,1.164514749247002,0.2695260332934775,0.9412576870410395,0.9671198214260146,0.9397452794640883,-0.01867722594174314,0.3650687133356177,0.7912069761650302,0.5721419761938213,0.02602182866041952,0.2075862248870293,0.7276789141229154,0.5031418759719091,0.1811766525786795,-0.04886365055175827,0.3902769650100401,0.3224045423393552,-0.04618703212895626,-0.2300516807175162,0.004451153027682079,767.985347985348,759.5238095238095,805.4578754578755,743.8095238095239,782.4908424908425,606.4102564102565,-0.209595,0.179016,0.928833,12.658234,50.214233,-45.952454,1,1,1,1,1,95.000000
2025-03-13 17:31:56.150,,,,,,,,,,,,,,,,,,,,,,,,,,,,,,,,,,,,,,,/muse/elements/blink
2025-03-13 17:31:56.536,1.164514749247002,0.447787455163728,0.9966254771883443,0.9671198214260146,0.9397452794640883,-0.05884250588655779,0.5041671702397357,0.7912069761650302,0.5721419761938213,0.01868544992714933,0.453547455510517,0.7276789141229154,0.5031418759719091,0.1528281721611155,-0.04415085846141462,0.3902769650100401,0.3224045423393552,-0.07472775895541284,-0.2967551965089255,0.004451153027682079,788.1318681318681,800.6227106227107,812.7106227106227,791.7582417582418,920.2930402930403,761.1355311355312,-0.414185,0.134033,0.925720,-5.637512,-0.448608,6.833801,1,1,1,1,1,95.000000
2025-03-13 17:31:57.025,1.164514749247002,0.447787455163728,0.8319284682421797,0.9671198214260146,0.9397452794640883,-0.05884250588655779,0.3341869972416356,0.7912069761650302,0.5721419761938213,0.01868544992714933,0.3910098171678686,0.7276789141229154,0.5031418759719091,0.1528281721611155,-0.03190794523606727,0.3902769650100401,0.3224045423393552,-0.07472775895541284,-0.3342367400223903,0.004451153027682079,796.1904761904763,787.7289377289378,809.0842490842491,813.919413919414,916.2637362637363,736.959706959707,-0.455872,0.091309,0.859436,9.757233,4.560852,-17.293854,1,2,1,1,2,95.000000
2025-03-13 17:31:57.525,1.164514749247002,0.5030658951435126,0.9774472264373678,0.9671198214260146,0.9397452794640883,-0.01341058247488901,0.5666787385942551,0.7912069761650302,0.5721419761938213,0.1036477337035419,0.3852424327487021,0.7276789141229154,0.5031418759719091,0.3261143979247792,0.1663034576147923,0.3902769650100401,0.3224045423393552,0.3059466669112731,-0.01416373286026407,0.004451153027682079,828.8278388278388,809.4871794871796,803.040293040293,822.7838827838829,908.2051282051282,813.1135531135532,-0.466736,0.079773,0.870117,1.846771,11.618958,9.031982,1,2,1,1,2,95.000000
2025-03-13 17:31:57.994,,,,,,,,,,,,,,,,,,,,,,,,,,,,,,,,,,,,,,,/muse/elements/blink
2025-03-13 17:31:58.028,1.365337270141216,0.5030658951435126,1.176324242666771,0.9675122406499126,0.9162865796110794,-0.01341058247488901,0.8517223249752612,0.1349313980128815,1.001378718503501,0.1036477337035419,0.4549957218752697,0.2784118858197241,0.7789196127114848,0.3261143979247792,0.4887500206886293,0.5525433982345418,0.5952031287273553,0.3059466669112731,0.08966627386399753,-0.006945002697822709,802.6373626373627,810.6959706959707,780.4761904761905,792.967032967033,964.6153846153846,1116.117216117216,-0.527527,0.030396,0.847412,-6.056213,17.383575,5.181427,1,1,1,1,1,95.000000
2025-03-13 17:31:58.525,1.563973243851697,0.6008593742572337,1.098868608033985,0.9675122406499126,1.240390739917967,0.2885368584083012,0.7346406333103698,0.1349313980128815,1.269639985134256,0.3366189081382016,0.4549957218752697,0.2784118858197241,0.6673203443825464,0.4882595820911743,0.4614476812558552,0.5525433982345418,0.5023547679007766,0.63102714911032,0.05851928407662009,-0.006945002697822709,801.4285714285714,807.4725274725275,820.7692307692308,823.992673992674,713.1868131868132,627.7655677655678,-0.566406,0.025696,0.833252,-24.105225,0.239258,30.542755,1,1,1,1,1,95.000000
2025-03-13 17:31:59.037,1.541629251019887,0.7511625205674387,1.083228765866453,1.168344593238591,1.327952684732302,0.391123491050872,0.7710999479251118,1.037378717214546,1.340106317544768,0.2676540849319344,0.4549957218752697,1.172672903191236,0.8591742746782001,0.4353272038087351,0.5019885121559818,0.7722636562370099,0.4478542373787331,0.54374450712083,0.06481392940482056,0.05379259676215892,796.1904761904763,794.1758241758242,799.4139194139194,800.6227106227107,816.3369963369963,728.4981684981685,-0.587830,0.118530,0.787842,-11.245117,1.966400,9.218903,1,1,1,1,1,95.000000
2025-03-13 17:31:59.537,1.384322440641056,0.6151903605353356,0.446473651826034,1.083013144362409,1.242671096564905,0.2759822660079606,-0.007660899822081214,1.016895502543891,1.336117952675948,0.2923641804242558,0.1870300753468766,1.172672903191236,0.8633333231708328,0.4994932958821415,0.3405045169501136,0.6447125856473545,0.400091168521672,0.4267699866869205,0.1077431581636484,0.04486035460753954,799.8168498168499,807.0695970695971,794.981684981685,751.0622710622711,696.2637362637363,173.6630036630037,-0.559875,0.133789,0.807251,-29.690399,-9.704895,54.378815,1,1,1,1,1,95.000000
2025-03-13 17:32:00.025,1.054526014185949,0.5109031008709541,-0.2330829163331301,1.083013144362409,1.044905238283386,0.3032801893982615,0.09455330305416636,1.016895502543891,1.273178256214775,0.1959687815108735,0.09502240585719007,1.172672903191236,0.8615058318351265,0.4588158272420587,0.1542551201570758,0.6447125856473545,0.3442824114211311,0.04475457487707134,-0.01162867803271622,0.04486035460753954,811.9047619047619,802.6373626373627,805.8608058608058,813.5164835164835,821.978021978022,784.1025641025641,-0.460205,0.120667,0.836121,-53.489075,9.734802,70.409088,1,1,1,1,1,95.000000
2025-03-13 17:32:00.526,0.7301655551487418,0.9903956556626532,0.8086784820770598,0.7924125709774783,0.6465172748744208,0.590498508127273,0.6024804747618245,0.7194457196980196,1.064381375821023,0.4097967775897143,0.265597373851705,0.8915104421491041,0.7211847862465743,0.3626280187846814,0.1664713069779203,0.3784282097914491,0.2525361114170712,0.02378458394624233,-0.06111387575308261,0.03053939970823499,801.025641025641,797.8021978021978,799.4139194139194,798.6080586080586,850.1831501831502,667.6556776556777,-0.443970,0.065308,0.896912,-2.639313,3.364563,10.071259,1,1,1,1,1,95.000000
2025-03-13 17:32:01.031,0.8834300302403696,1.137931354146337,0.9307054802884176,0.6105422567167605,0.4179912215662266,0.577546323274491,0.6135688253456393,0.5244235195717656,0.6567474721120012,0.4097967775897143,0.2708819251519413,0.3654894118589374,0.5430913592472331,0.2361430448129702,0.1745985394370836,0.1431354065873121,0.1096929439980657,0.07656720991836793,-0.07660441840587304,-0.03486415640356831,774.0293040293041,797.8021978021978,819.1575091575091,800.6227106227107,912.6373626373627,802.2344322344322,-0.436951,0.191284,0.838501,30.961456,-14.228363,-73.063354,1,1,1,1,1,95.000000
2025-03-13 17:32:01.525,1.058129361230537,1.196446702869573,1.039096644732872,0.5513942233006137,0.4538129898861745,0.5965052362134629,0.6554524117209284,0.1440184678864934,0.6653966153763305,0.4695545082102695,0.2622416225656474,0.4095062622995939,0.6014632621686856,0.1948658736849804,0.1948770425855776,0.354428546864911,0.2087609771784238,0.1435918386080458,-0.004923352422899645,0.1334856237511335,831.6483516483516,777.6556776556777,808.2783882783883,818.7545787545788,507.2893772893773,12.49084249084249,-0.444885,-0.091125,0.872131,28.479156,1.226196,-55.507812,1,1,1,1,1,95.000000
2025-03-13 17:32:02.035,1.058714959158455,1.127765582609798,1.135394655940295,0.5513942233006137,0.3893153417477364,0.4088082999569239,0.5067229461856038,0.1440184678864934,0.662183941379905,0.3140286925587327,0.2161244157516929,0.4095062622995939,0.667054297052656,0.2036426267279146,0.152135316184696,0.354428546864911,0.2559795836749063,0.1255315968780525,0.002021780784526585,0.1334856237511335,791.7582417582418,802.2344322344322,805.0549450549451,820.3663003663004,1367.142857142857,1585.531135531136,-0.513855,0.168945,0.850037,12.104950,-2.257996,-3.828125,1,1,1,1,1,95.000000
2025-03-13 17:32:02.525,1.019918194955675,0.7640489839457111,1.083173337417772,0.4363007491891366,0.5205896521899028,0.3031630286171607,0.4241880245766297,0.1769819679175438,0.9077669584490801,0.4784844740408815,0.1999058968525759,0.3472418506521526,0.7683640161448876,0.3132121681515395,0.07257479131545108,0.361524393499755,0.3900918049330943,0.3818940153884139,-0.1597245279701305,0.1543385305442776,795.7875457875458,810.2930402930403,803.4432234432235,749.047619047619,286.4835164835165,0,-0.506531,0.083191,0.923340,-2.586975,2.228088,-23.649139,1,1,1,1,1,95.000000
2025-03-13 17:32:03.034,0.6719532903799512,0.4999066509552085,0.994559947120627,0.4363007491891366,0.5195115136093049,0.09504081886404384,0.275961529484901,0.1769819679175438,0.8772179728287605,0.4698941281342199,0.1637928489191972,0.3472418506521526,0.7214649082204617,0.3105874920181438,0.06283742543419331,0.361524393499755,0.3999342779747922,0.3927492580747576,-0.2406185005966453,0.1543385305442776,821.1721611721612,801.4285714285714,800.6227106227107,888.4615384615385,637.4358974358975,556.8498168498169,-0.464966,-0.002991,0.812317,-42.632751,17.166748,62.281799,1,1,1,1,1,95.000000
2025-03-13 17:32:03.189,,,,,,,,,,,,,,,,,,,,,,,,,,,,,,,,,,,,,,,/muse/elements/blink
2025-03-13 17:32:03.536,1.239831902302821,0.8167425335696108,0.6107777366858456,0.4363007491891366,0.9073359806146408,0.3832758413605468,-0.005901202614614788,0.1769819679175438,0.9415118804193595,0.5384550485707676,0.1676608446527229,0.3472418506521526,0.7199335444200843,0.3708431358412796,0.1474580742878142,0.361524393499755,0.339021012487046,0.3388168074246902,-0.1103939063253172,0.1543385305442776,780.0732600732601,794.981684981685,792.967032967033,719.6336996336996,628.1684981684982,161.1721611721612,-0.620850,0.134033,0.636353,-13.159180,0.493469,16.650848,1,1,1,1,1,95.000000
2025-03-13 17:32:04.025,1.345999370845292,0.9049881708276658,0.509442662360862,0.4363007491891366,1.01782927920302,0.450630483605373,-0.2039609473499262,0.1769819679175438,0.7230555631210877,0.4353139126556487,0.2104541407759775,0.3472418506521526,0.6447492993302849,0.3564667020518156,0.2998880186851785,0.361524393499755,0.3085485556457812,0.1594921861963985,0.08047552926728274,0.1543385305442776,805.8608058608058,795.7875457875458,791.3553113553114,810.6959706959707,1624.615384615385,1622.197802197802,-0.630188,-0.039917,0.891724,-2.415009,8.179626,4.164581,1,1,1,1,1,95.000000
2025-03-13 17:32:04.525,1.42835808016586,0.9419631179989598,0.5526322459771036,0.4363007491891366,1.028106025430346,0.6380646977908159,0.3032854558177618,0.1769819679175438,0.7468524624817151,0.4391098568524225,0.4689263608190644,0.3472418506521526,0.6823034464107077,0.4544705976638565,0.5028533324654688,0.361524393499755,0.2208848505549558,0.2309571730617245,0.2380754678874585,0.1543385305442776,791.7582417582418,799.8168498168499,803.040293040293,746.6300366300367,527.4358974358975,40.6959706959707,-0.716309,0.029114,0.811768,6.370239,-0.373840,-4.007568,1,1,1,1,1,95.000000
2025-03-13 17:32:05.025,0.6959653685707106,0.5756772002570563,0.4265417049259234,0.4363007491891366,0.2165472305099491,0.4662473364491774,0.426756559910232,0.1769819679175438,0.597707094882907,0.3628965783678472,0.4357641202161133,0.3472418506521526,0.5536351888367492,0.5018927905398824,0.4871135112765144,0.361524393499755,0.2076489738665925,0.1943806392934538,0.2615826415482716,0.1543385305442776,801.025641025641,809.0842490842491,794.1758241758242,790.5494505494506,232.4908424908425,0,-0.633728,0.057251,0.672913,-11.289978,-6.661835,7.028198,1,1,1,1,1,95.000000
2025-03-13 17:32:05.533,0.6717361270107169,0.5620378603133936,0.4490315659116076,0.4363007491891366,0.2361377698352169,0.4093058214433821,0.4306124081718509,0.1769819679175438,0.6021745252119273,0.3763677889114571,0.4985648432145093,0.3472418506521526,0.5220241761605291,0.5124483928906252,0.3789179294948249,0.361524393499755,0.1937553637852259,0.2014636994575754,0.2092907234354587,0.1543385305442776,786.9230769230769,786.9230769230769,815.1282051282052,737.3626373626374,748.2417582417582,52.38095238095238,-0.514160,0.086426,0.661499,-38.124237,-11.125488,69.347382,1,1,1,1,1,95.000000
2025-03-13 17:32:06.025,0.5648981577070812,0.7474341821595679,0.8832856987541157,0.4363007491891366,0.1930240651530411,0.5613472346772367,0.4306936615212608,0.1769819679175438,0.595329681474167,0.5541294002452632,0.7411060160833413,0.3472418506521526,0.4853899167544367,0.5366190269824966,0.2331039150845698,0.361524393499755,0.1607660261692172,0.1319855601279948,0.07352703748219114,0.1543385305442776,786.1172161172161,796.5934065934066,789.3406593406594,748.2417582417582,262.7106227106227,0,-0.181152,0.065247,1.173584,-12.740479,-7.491760,26.707153,1,1,1,1,1,95.000000
2025-03-13 17:32:06.525,0.6117069780956401,1.009974747754902,1.215847974586265,0.4363007491891366,0.2772302386006593,0.6544692636872083,0.2502927158448177,0.1769819679175438,0.4885934583572921,0.5554867084751831,0.7464058409409365,0.3472418506521526,0.4411659263268288,0.4946549618126596,0.04545861020802127,0.361524393499755,0.1607676349083827,0.1331417499057759,-0.2087052056823077,0.1543385305442776,810.6959706959707,769.1941391941392,812.3076923076924,870.7326007326008,1145.531135531136,1493.663003663004,-0.241150,0.109131,0.848389,-24.643555,22.168732,71.089478,1,1,1,1,1,95.000000
2025-03-13 17:32:06.644,,,,,,,,,,,,,,,,,,,,,,,,,,,,,,,,,,,,,,,/muse/elements/blink
2025-03-13 17:32:07.032,0.6117069780956401,1.231713574804249,1.343771959391507,0.4363007491891366,0.2772302386006593,0.8560546660800195,0.4077788964970028,0.1769819679175438,0.4885934583572921,0.4888342912686879,0.7464058409409365,0.3472418506521526,0.4411659263268288,0.4528103484179241,0.1525325642499682,0.361524393499755,0.1607676349083827,0.03173920595151825,-0.2876433433588509,0.1543385305442776,802.6373626373627,801.025641025641,815.5311355311355,766.3736263736264,337.6556776556777,0,-0.382874,0.035706,0.828979,-2.841187,5.592651,18.011627,1,1,1,1,1,95.000000
2025-03-13 17:32:07.525,0.6117069780956401,1.319255759878412,1.358459224886103,0.4363007491891366,0.2772302386006593,0.9163097471374002,0.3777681197634445,0.1769819679175438,0.4885934583572921,0.4814641728864367,0.6093040969823895,0.3472418506521526,0.4411659263268288,0.4098138650428663,0.1791282687624551,0.361524393499755,0.1607676349083827,-0.01262325315400788,-0.2433354043873839,0.1543385305442776,816.7399267399268,790.5494505494506,798.6080586080586,925.934065934066,1250.29304029304,1618.571428571429,-0.353882,0.094543,0.988281,19.888306,12.157288,-52.143250,1,1,1,1,1,95.000000
2025-03-13 17:32:08.025,0.6117069780956401,1.319255759878412,1.233476852786324,0.4363007491891366,0.2772302386006593,0.9163097471374002,0.5355139372306443,0.1769819679175438,0.4885934583572921,0.4814641728864367,0.2871079922512465,0.3472418506521526,0.4411659263268288,0.4098138650428663,0.3255879077828623,0.361524393499755,0.1607676349083827,-0.01262325315400788,-0.09555049593875242,0.1543385305442776,795.7875457875458,825.6043956043957,786.5201465201466,820.7692307692308,411.7948717948718,368.6813186813187,-0.492737,0.075500,0.916016,45.361786,11.372223,-59.986420,1,1,1,1,1,95.000000
2025-03-13 17:32:08.525,0.8549432685186954,1.319255759878412,1.233476852786324,0.4363007491891366,0.8482389802222251,0.9163097471374002,0.5355139372306443,0.1769819679175438,0.9256962834579149,0.4814641728864367,0.2871079922512465,0.3472418506521526,0.8992984769691099,0.4098138650428663,0.3255879077828623,0.361524393499755,0.4583219439944911,-0.01262325315400788,-0.09555049593875242,0.1543385305442776,794.1758241758242,775.6410256410256,799.0109890109891,811.9047619047619,883.6263736263736,778.4615384615385,-0.631531,0.043762,0.773315,18.243408,-3.035583,-24.150085,1,1,1,1,1,95.000000
2025-03-13 17:32:09.025,0.7184580766319659,1.319255759878412,1.176351618472291,0.4363007491891366,0.8238522170911473,0.9163097471374002,0.6400480666586287,0.1769819679175438,0.9380758105696195,0.4814641728864367,0.4283542055580962,0.3472418506521526,0.8739187261998016,0.4098138650428663,0.3832899195346307,0.361524393499755,0.4884422767554731,-0.01262325315400788,0.2620163127930733,0.1543385305442776,805.0549450549451,803.8461538461539,822.7838827838829,821.978021978022,837.2893772893773,917.4725274725275,-0.701965,0.039490,0.690186,34.124146,7.626343,-27.910919,1,1,1,1,1,95.000000
2025-03-13 17:32:09.525,0.789235188103093,0.7931912658693719,1.105166679391008,0.4363007491891366,0.7389436997776925,-0.01801259336202578,0.4686486917432713,0.1769819679175438,0.953629040818428,0.4178911793640246,0.4562121860426763,0.3472418506521526,0.8439350482764668,0.563867455477414,0.3541722326099947,0.361524393499755,0.5098862661336494,0.6517682966335617,0.2869141870842954,0.1543385305442776,837.2893772893773,810.2930402930403,805.4578754578755,888.0586080586081,1622.197802197802,1622.197802197802,-0.817810,0.085876,0.513489,34.782104,12.329254,-21.869659,1,1,1,1,1,95.000000
2025-03-13 17:32:10.034,0.9652463329053419,1.018352150023074,1.164130472088202,0.4363007491891366,0.6484579607363358,0.2891182753737719,0.4997385563691709,0.1769819679175438,0.9975482371869182,0.5913859394827892,0.4629566073368383,0.3472418506521526,0.7554351724201246,0.5837594833776819,0.3260299367802565,0.361524393499755,0.478098910049326,0.6787176591732306,0.2922019366222272,0.1543385305442776,800.2197802197802,796.996336996337,791.7582417582418,808.6813186813187,1518.241758241758,1612.124542124542,-0.735291,-0.053040,0.773193,15.970459,-13.749847,-11.910553,1,1,1,1,1,95.000000
2025-03-13 17:32:10.525,1.119600786500792,1.034217739883134,1.10396656352269,0.4363007491891366,0.5517906422541106,0.3178563938348821,0.3798626604806674,0.1769819679175438,0.9480375526332945,0.5285026446914359,0.5496354068870197,0.3472418506521526,0.707750951317048,0.587496652502463,0.2799974954944208,0.361524393499755,0.4445292705438334,0.6728061149668002,0.2656793424893058,0.1543385305442776,801.025641025641,797.3992673992674,801.4285714285714,840.5128205128206,419.8534798534799,220.8058608058608,-0.708679,0.106018,0.723694,10.908661,-7.895508,-5.846863,1,1,1,1,1,95.000000
2025-03-13 17:32:10.914,,,,,,,,,,,,,,,,,,,,,,,,,,,,,,,,,,,,,,,/muse/elements/blink
2025-03-13 17:32:11.025,1.171305844321989,0.9437329950821581,0.961302436667869,0.4363007491891366,0.6626953043913895,0.309604799411948,0.351574287547707,0.1769819679175438,0.9419929673212021,0.5172258280261256,0.5450338180197853,0.3472418506521526,0.7163147028998057,0.5538190253544003,0.3022924092751309,0.361524393499755,0.3474908454870045,0.5239306081166598,0.2026327655384275,0.1543385305442776,811.9047619047619,797.3992673992674,810.6959706959707,821.5750915750916,910.2197802197802,819.96336996337,-0.680908,0.027405,0.701111,4.448700,-4.598236,-6.392670,1,1,1,1,1,95.000000
2025-03-13 17:32:11.535,1.171305844321989,0.5115388628979096,0.5875603603971833,0.4363007491891366,0.6626953043913895,0.2165188767330118,0.08268303663101123,0.1769819679175438,0.9419929673212021,0.3590931345299175,0.5370343093509061,0.3472418506521526,0.7163147028998057,0.4893210367687972,0.4010008479330937,0.361524393499755,0.3474908454870045,0.1549303541617583,0.1910649107133929,0.1543385305442776,782.0879120879121,798.6080586080586,805.8608058608058,777.6556776556777,965.4212454212454,1021.025641025641,-0.596741,0.080200,0.755249,13.570404,-24.695892,-3.259888,1,1,1,1,1,95.000000
2025-03-13 17:32:12.034,1.171305844321989,0.6124688450938394,0.1340107007912271,0.4363007491891366,0.6626953043913895,0.3930012661306175,-0.06106881688153591,0.1769819679175438,0.9419929673212021,0.425656220300167,0.1319725077218443,0.3472418506521526,0.7163147028998057,0.4041015425851303,0.36958461580139,0.361524393499755,0.3474908454870045,0.05133534699371256,0.1155189640031891,0.1543385305442776,793.3699633699634,794.981684981685,801.8315018315019,813.5164835164835,926.7399267399268,939.6336996336996,-0.394226,0.035583,0.896912,-3.514099,-9.480591,2.071075,1,1,1,1,1,95.000000
2025-03-13 17:32:12.530,1.171305844321989,0.6179138656168116,0.2717262576020884,0.4363007491891366,0.6626953043913895,0.386188243618754,0.1214222627644709,0.1769819679175438,0.9419929673212021,0.3462248566392745,0.5675168217360687,0.3472418506521526,0.7163147028998057,0.3076115228578065,0.3539963511750255,0.361524393499755,0.3474908454870045,-0.02368298894191271,0.1657839575793114,0.1543385305442776,779.6703296703297,814.3223443223443,803.040293040293,795.7875457875458,662.8205128205128,215.970695970696,-0.343506,-0.063293,0.947937,43.440247,-5.495453,-90.910492,1,1,1,1,1,95.000000
2025-03-13 17:32:13.025,0.7444496726680074,0.7646411451837601,0.7088198799394798,0.4363007491891366,0.3959550583394411,0.3890508807253927,0.3372178408590588,0.1769819679175438,1.063125464848587,0.3218946378687633,0.5664430657016801,0.3472418506521526,0.681968354029746,0.232296323736444,0.2179382308738225,0.361524393499755,0.3625506010146079,0.07085052507379583,0.1333794276777003,0.1543385305442776,800.6227106227107,815.1282051282052,813.5164835164835,809.8901098901099,822.3809523809524,756.3003663003664,-0.437622,0.057007,0.867310,39.963531,-1.286011,-80.652313,1,1,1,1,1,95.000000
2025-03-13 17:32:13.525,0.9553157827007975,1.083114366147278,0.834306623384049,0.4363007491891366,0.3999466251108182,0.3920218010307899,0.441923738335723,0.1769819679175438,1.07181050428003,0.2442073595292502,0.5626572897068353,0.3472418506521526,0.6494574548536399,0.2413489144835496,0.249233973381611,0.361524393499755,0.3024468944815278,0.1626166464728361,0.1912251606483902,0.1543385305442776,840.9157509157509,801.4285714285714,814.3223443223443,879.5970695970697,934.3956043956044,847.3626373626374,-0.466797,-0.010010,0.843079,56.674194,5.517883,-98.521881,1,1,1,1,1,95.000000
2025-03-13 17:32:14.030,1.00624243178029,1.231484758777103,1.259750259516333,0.4363007491891366,0.3300233320807696,0.4856095800761905,0.6533556374327757,0.1769819679175438,0.9101829023919266,0.295578410333149,0.4846827787484185,0.3472418506521526,0.6318325852076951,0.3785325311416823,0.2267673748936575,0.361524393499755,0.2271040982521412,0.3147556450533693,0.1442590943458192,0.1543385305442776,777.2527472527473,801.025641025641,815.1282051282052,793.7728937728938,493.5897435897436,93.07692307692308,-0.628296,0.112061,0.756470,0.097198,4.523468,-0.814972,1,1,1,1,1,95.000000
2025-03-13 17:32:14.527,1.198081949534844,1.249477977266045,1.419567751903539,0.4363007491891366,0.3805256505965136,0.4550630127645103,0.7896475536551639,0.1769819679175438,0.5540260795716961,0.3220239567229903,0.4470358643934758,0.3472418506521526,0.5815568659230681,0.3959958006906183,0.1392819903400515,0.361524393499755,0.1284108031883972,0.3271187380803246,0.04434674404624587,0.1543385305442776,783.2967032967033,796.1904761904763,800.6227106227107,797.8021978021978,588.6813186813187,139.010989010989,-0.455444,0.078430,0.882507,0.366364,-14.564819,-4.157104,1,1,1,1,1,95.000000
2025-03-13 17:32:15.025,1.198081949534844,0.6656360567241679,1.050028320166849,0.4363007491891366,0.3805256505965136,-0.01275617922860775,0.4926792034326921,0.1769819679175438,0.5540260795716961,0.2967047028443655,0.4726342493151428,0.3472418506521526,0.5815568659230681,0.4456800668018442,0.2274981591586771,0.361524393499755,0.1284108031883972,0.3346652708211295,0.260444590771557,0.1543385305442776,826.007326007326,809.8901098901099,794.5787545787546,811.5018315018315,941.6483516483516,909.4139194139194,-0.553833,0.117249,0.812988,3.454285,3.237457,12.658234,1,1,1,1,1,95.000000
2025-03-13 17:32:15.537,0.5801643079242357,0.443175551054785,0.05189291615878257,0.4363007491891366,0.3411670837838613,0.03800130029279596,0.1279072311278884,0.1769819679175438,0.5987686271225876,0.3822619358309151,0.1551504159279802,0.3472418506521526,0.4934015046130253,0.3007730466109249,0.332309783197981,0.361524393499755,0.04555748615062182,0.2357057817986931,0.2819760060820316,0.1543385305442776,850.989010989011,805.0549450549451,807.4725274725275,850.989010989011,998.4615384615385,881.6117216117217,-0.564392,0.214539,0.802856,6.138458,-2.691650,-8.433838,1,1,1,1,1,95.000000
2025-03-13 17:32:15.643,,,,,,,,,,,,,,,,,,,,,,,,,,,,,,,,,,,,,,,/muse/elements/blink
2025-03-13 17:32:16.035,0.5801643079242357,0.2634371433296491,0.1090018489455552,0.4363007491891366,0.3411670837838613,0.1597775177162577,0.249427951544283,0.1769819679175438,0.5987686271225876,0.3990342827366964,0.3831338459842011,0.3472418506521526,0.4934015046130253,0.3019329519204741,0.2816848954263242,0.361524393499755,0.04555748615062182,0.255292274290517,0.1993551607761651,0.1543385305442776,795.7875457875458,808.2783882783883,813.5164835164835,810.2930402930403,811.0989010989011,681.3553113553114,-0.585938,0.292419,0.746033,4.740295,21.607971,-3.484192,1,1,1,1,1,95.000000
2025-03-13 17:32:16.525,0.5801643079242357,0.1275760525939351,0.1322524163346613,0.4363007491891366,0.3411670837838613,0.1113230075843545,0.1745062864132487,0.1769819679175438,0.5987686271225876,0.3781042993365423,0.3423811950260012,0.3472418506521526,0.4934015046130253,0.2483271371955134,0.3045890501447859,0.361524393499755,0.04555748615062182,0.2761230012454901,0.1532704998735978,0.1543385305442776,798.2051282051282,805.0549450549451,803.4432234432235,805.4578754578755,875.9706959706959,689.4139194139194,-0.577942,0.128113,0.787415,-0.979462,-3.775787,-1.398163,1,1,1,1,1,95.000000
2025-03-13 17:32:17.025,0.5801643079242357,0.1111907489936566,0.1639403096083047,0.4363007491891366,0.3411670837838613,-0.009174535408884162,0.09442717319958621,0.1769819679175438,0.5987686271225876,0.2711055413596657,0.3440817865439391,0.3472418506521526,0.4934015046130253,0.2636803850191345,0.333123844054484,0.361524393499755,0.04555748615062182,0.2199412384241342,0.1237122474966474,0.1543385305442776,784.5054945054945,799.0109890109891,794.981684981685,800.2197802197802,837.6923076923077,880,-0.568726,0.159973,0.799255,-2.310333,-2.504730,0.157013,1,1,1,1,1,95.000000
2025-03-13 17:32:17.525,0.4101731421014196,0.08049219709094348,0.06617752018900198,0.6025990213080997,0.2717116294526185,-0.2091698796704335,-0.05931652294322384,0.3334436357567888,0.8607452436501579,0.3527503645232096,0.1399626076762959,0.4719765876425112,0.4639391437124694,0.298099753811199,0.3027237760627257,0.3778544523047359,0.0230354296801885,0.2433747872524392,0.1270325937022974,-0.07412718485964098,835.2747252747253,814.7252747252747,793.3699633699634,809.4871794871796,869.5238095238095,672.893772893773,-0.549805,0.205688,0.847778,-14.460144,-7.633820,10.250702,1,1,1,1,1,95.000000
2025-03-13 17:32:18.025,1.126046862258498,0.4119550608966853,0.2619321661656041,1.000704441758596,0.9873705281027012,0.146720475067697,-0.01668598078565903,0.9019775927908755,1.122748652045671,0.4121914104316957,0.1403449351640335,0.7682732493302026,0.6216372414353232,0.4483464000788139,0.3072163734352728,0.470494608619814,0.06239844391972464,0.2409439470740669,0.1143224811637934,-0.1169337664445753,788.5347985347986,796.5934065934066,806.2637362637363,809.4871794871796,627.3626373626374,421.8681318681319,-0.543091,0.091980,0.804260,-12.733002,-9.547882,5.360870,1,1,1,1,1,95.000000
2025-03-13 17:32:18.525,1.24114566669697,0.7467840919169024,0.6741782962177926,1.07764712545056,1.081293075562628,0.3888247512621781,0.3416043431700093,1.026307203924449,1.122748652045671,0.4847627178416113,0.4148407052446442,0.7682732493302026,0.6798503323445546,0.4259074553072264,0.2194822505562005,0.5389395077154675,0.09776555172536848,0.2852043848075801,0.07337340970662504,-0.2084641491753485,798.2051282051282,801.4285714285714,798.2051282051282,794.981684981685,856.6300366300367,721.6483516483516,-0.429932,-0.080322,0.904663,-3.588867,-6.205750,10.549774,1,1,1,1,1,95.000000
2025-03-13 17:32:19.025,1.482124295797359,0.8570518215342148,0.8230973883585655,1.336945655773427,1.322046706270137,0.4535956220163839,0.4370761400470477,1.298371373910336,1.122748652045671,0.4847627178416113,0.4172499218348928,0.7682732493302026,0.7944537970634877,0.4386186781631656,0.2669714210674606,0.6121084902191124,0.1391651893219473,0.2150451530350679,0.1025375359167376,-0.277260566744634,786.5201465201466,811.9047619047619,784.5054945054945,790.5494505494506,849.3772893772895,644.6886446886447,-0.359619,0.075378,0.921631,-37.727966,-2.564545,87.104797,1,1,1,1,1,95.000000
2025-03-13 17:32:19.525,1.55006436401518,0.9975616243473633,1.103786781492675,0.8491032967987702,1.375109437093808,0.5703215100949142,0.8500059189934588,0.751945019789379,1.122748652045671,0.2645321278440071,0.679195051222197,0.5867392516672403,0.8245847409753556,0.2464653639011457,0.2684613335449043,0.6322244949644535,0.1781459435111557,0.1222136048398014,0.08471528751522633,0.5522136155427707,792.1611721611722,807.8754578754579,787.7289377289378,812.7106227106227,878.3882783882784,744.6153846153846,-0.349243,0.052429,0.942444,-21.211700,-6.302948,49.810486,1,1,1,1,1,95.000000
2025-03-13 17:32:20.025,1.197105708314471,1.18265182870813,1.286364983505855,1.023673610189741,0.7593640095845489,0.625424825301069,0.9719799116172223,0.7827968936750043,0.7267725989778544,0.3653213195479482,0.6636247151926415,1.038134147461097,0.5113828507076079,0.1998074790038651,0.3223489071175235,0.9358724584988261,0.308804509586791,0.06344215878971204,0.1847780169169927,0.6959758347940164,834.4688644688645,807.8754578754579,800.6227106227107,789.7435897435897,805.4578754578755,711.1721611721612,-0.334717,-0.057251,0.928223,-7.342224,0.859833,29.570770,1,1,1,1,1,95.000000
2025-03-13 17:32:20.530,1.129728011610228,1.176617869795655,1.329834268876702,0.8932695235870817,0.8272677205496631,0.7038978026611622,0.9781783152441532,0.6686733985687383,0.7483909645799018,0.5106361597901036,0.5750503423115104,1.076947358463854,0.4891281773153402,0.2123501350512274,0.373798239714357,1.039095126145363,0.4259042764988777,0.134603460270912,0.2501035336714953,0.7671609598201528,811.9047619047619,803.4432234432235,800.2197802197802,803.4432234432235,873.1501831501831,767.5824175824176,-0.399719,0.006348,0.898743,-7.686157,0.112152,16.673279,1,1,1,1,1,95.000000
2025-03-13 17:32:21.030,1.024813490562227,1.079342577787292,1.179841761195698,0.8110790240345991,0.7590072046147628,0.5946183187816105,0.6929948023095889,0.6117318782693144,0.7299159857807065,0.5106361597901036,0.4767405692496441,1.075988829364195,0.4664599377077739,0.2448135215704617,0.2944179828714921,1.052828930195976,0.5417141810021993,0.21226039490898,0.2181606706857643,0.763653352449739,806.6666666666667,795.3846153846154,804.2490842490843,795.7875457875458,830.4395604395604,676.1172161172161,-0.404663,-0.007019,0.909424,0.119629,-0.059814,-6.086121,1,1,1,1,1,95.000000
2025-03-13 17:32:21.525,0.476711291538883,0.6106186131951913,0.7850584252282482,0.3743564887214743,0.3685902008407884,0.4316536378773251,0.4148843656405461,0.3755339977707364,0.513346256635055,0.4673378470671,0.391382204059834,0.9811300072319378,0.3951543404455094,0.2384293556837747,0.2819655219873536,0.926590168825345,0.5610822703350984,0.2066238469969258,0.01254426330563466,0.6835594968322209,795.7875457875458,803.8461538461539,796.996336996337,794.1758241758242,745.0183150183151,593.1135531135532,-0.400879,-0.037231,0.903259,2.310333,-3.140259,-7.431946,1,1,1,1,1,95.000000
2025-03-13 17:32:22.025,0.2981710208480907,0.2324222780559351,0.2953570523762249,0.1845505294634392,0.2559971114065361,0.1615874477067919,0.2323065592296751,0.2973996467685681,0.513346256635055,0.3296177960364958,0.3313943650690259,0.9632254561757732,0.3762160830080234,0.1175853168307366,0.2066830112074622,0.6683565343312191,0.3881853395297724,0.1259285042412426,-0.1914260729492092,0.5491812138141542,800.2197802197802,805.4578754578755,807.4725274725275,792.1611721611722,756.7032967032967,535.8974358974359,-0.347961,0.016846,0.935120,33.025055,1.293488,-61.414490,1,1,1,1,1,95.000000
2025-03-13 17:32:22.534,-0.0890132190759729,0.3071231083116375,0.3703683531776268,0.349634554068662,-0.05836026192029169,0.05714302073200129,0.1504957625259446,0.1513249184747786,0.2699066770429241,0.03986769159233778,0.2686366977269782,0.7946034433297372,0.3416620046367638,-0.0327382970471871,0.2055989626797617,0.5416158602408309,0.2183856238717933,-0.03902662789646031,-0.2432554302485966,0.5293591108075453,789.3406593406594,800.2197802197802,794.1758241758242,810.6959706959707,908.6080586080586,869.5238095238095,-0.339905,0.074036,0.958618,58.378906,1.757050,-119.838257,1,1,1,1,1,95.000000
2025-03-13 17:32:22.573,,,,,,,,,,,,,,,,,,,,,,,,,,,,,,,,,,,,,,,/muse/elements/blink
2025-03-13 17:32:23.034,-0.186816129482966,0.8176545719424327,1.029479010616901,0.4747135986645832,0.02325256424126022,0.4363819845596639,0.479439326926957,0.1821940321198514,0.2643492286297549,0.02319486574794788,0.4344540772012844,0.5850169107340631,0.3452299617233098,0.0931689434835168,0.1288736360846395,0.5359230675061116,-0.07926966802967825,-0.05935464147107241,-0.1416879916270664,0.5474487973004886,804.2490842490843,796.996336996337,818.3516483516484,827.6190476190476,898.5347985347986,752.6739926739926,-0.474915,0.002930,0.842651,19.035950,-1.136475,-35.739136,1,1,1,1,1,95.000000
2025-03-13 17:32:23.525,-0.07868526706512829,0.9846358441190692,1.206696610711963,0.6785632628838785,0.05447845002842773,0.5639114841517617,0.5230531988148075,0.1709338595377827,0.2397003817470618,-0.1199564227062029,0.406284985243967,0.413811009643989,0.3245965138944239,0.1395002496195205,0.1636582817559578,0.4702449437060371,-0.05847641798957014,-0.09582498858983288,0.01107841566435949,0.4988136565653303,827.6190476190476,821.978021978022,823.5897435897436,816.3369963369963,1082.673992673993,1069.78021978022,-0.417175,0.196960,0.921143,8.605804,-13.891907,-20.807953,1,1,1,1,1,95.000000
2025-03-13 17:32:24.033,-0.07868526706512829,1.045441486930498,1.229641020040235,0.6785632628838785,0.05447845002842773,0.6328178800408701,0.5583596919382329,0.1709338595377827,0.2397003817470618,0.3396656111577857,0.3893324443918015,0.413811009643989,0.3245965138944239,0.6626170836828018,0.3542865745457628,0.4702449437060371,-0.05847641798957014,0.4537479742133019,0.247842127207282,0.4988136565653303,788.9377289377289,798.6080586080586,818.3516483516484,826.4102564102565,670.8791208791209,618.901098901099,-0.425232,-0.042725,0.887573,26.408081,-4.201965,-59.567719,1,1,1,1,1,95.000000
2025-03-13 17:32:24.525,-0.07868526706512829,0.6676326091834587,1.00814503850582,0.6785632628838785,0.05447845002842773,0.5926286836871055,0.6792899970615315,0.1709338595377827,0.2397003817470618,0.4131108966104549,0.3379739730172966,0.413811009643989,0.3245965138944239,0.667106382871488,0.4870265854319367,0.4702449437060371,-0.05847641798957014,0.4411517058975262,0.3205934598073625,0.4988136565653303,807.4725274725275,807.4725274725275,790.1465201465202,805.8608058608058,584.2490842490843,365.0549450549451,-0.462341,-0.015259,0.831055,8.291779,-13.308716,-24.703369,1,1,1,1,1,95.000000
2025-03-13 17:32:25.025,1.063636787542088,0.8267380692433938,0.9799450330486899,0.6785632628838785,0.7842847661367608,0.6277558137084549,0.7860970719428699,0.1709338595377827,0.6893632895956142,0.4485279588887209,0.2974265321978499,0.413811009643989,0.6134030773914187,0.585944217650574,0.5162125999246596,0.4702449437060371,0.2144499297700998,0.3081562227934063,0.2274077304926085,0.4988136565653303,813.5164835164835,807.0695970695971,796.5934065934066,904.1758241758242,1625.018315018315,1622.197802197802,-0.353394,0.102173,0.932739,8.344116,0.770111,-21.174316,1,1,1,1,1,95.000000
2025-03-13 17:32:25.410,,,,,,,,,,,,,,,,,,,,,,,,,,,,,,,,,,,,,,,/muse/elements/blink
2025-03-13 17:32:25.529,0.9437836826960003,0.8746873002768192,0.9286443089293575,0.6785632628838785,0.6760514670579014,0.7166379807138521,0.7284315250480087,0.1709338595377827,0.7105132482808045,0.5056612400158719,0.2974265321978499,0.413811009643989,0.5887988063959295,0.4172948356577373,0.4012449878958028,0.4702449437060371,0.1357022331343411,0.07167386561955943,0.05902559323523251,0.4988136565653303,806.6666666666667,796.1904761904763,795.7875457875458,751.4652014652015,587.8754578754579,145.0549450549451,-0.380066,0.086304,0.962646,-2.362671,9.039459,10.774078,1,1,1,1,1,95.000000
2025-03-13 17:32:26.031,0.9608386324596223,0.912311040971703,0.9367273465946984,0.6785632628838785,0.5835248960561692,0.731245494708901,0.4431271820100062,0.1709338595377827,0.6501614402113919,0.4226967449092069,0.1287966723021968,0.413811009643989,0.5818151806699503,0.1627595380263505,0.3192233619567394,0.4702449437060371,0.02838837702646797,-0.05871571059261697,-0.1188322816883375,0.4988136565653303,807.4725274725275,801.025641025641,794.5787545787546,854.2124542124542,440.8058608058608,205.4945054945055,-0.345703,-0.008301,0.894531,-18.086395,-3.760834,33.331604,1,1,1,1,1,95.000000
2025-03-13 17:32:26.525,0.6692671619494193,0.8323279994211689,0.8920891204791931,0.6785632628838785,0.337972142087676,0.7551583825871081,0.468836125111322,0.1709338595377827,0.538043804508302,0.542706068256864,0.5114806636568403,0.413811009643989,0.5575144901477902,0.1281899486665352,0.2469427624153669,0.4702449437060371,-0.06250122473464607,0.05014108950012021,0.03852128538011068,0.4988136565653303,788.5347985347986,790.1465201465202,811.5018315018315,705.934065934066,745.8241758241759,0,-0.264465,-0.098206,0.925964,-27.978210,-4.358978,52.502136,1,1,1,1,1,95.000000
2025-03-13 17:32:27.032,1.198432057727099,1.06369573818309,1.14210709857661,0.6785632628838785,0.9381600600039212,0.8155410088629946,0.7341351672821488,0.1709338595377827,0.7699362698006341,0.6135389807863528,0.5708937711297208,0.413811009643989,0.4386300897740673,0.2239041733681023,0.4013472433146078,0.4702449437060371,0.106447006651117,0.1384187411839358,0.1654426960576549,0.4988136565653303,813.1135531135532,811.9047619047619,806.6666666666667,819.1575091575091,1240.21978021978,1593.992673992674,-0.447266,-0.080078,0.806213,-4.224396,14.901276,16.650848,1,1,1,1,1,95.000000
2025-03-13 17:32:27.525,1.156383788328398,1.041929196136229,1.080484179578035,0.6785632628838785,0.8843312530071566,0.7915328746589265,0.7690994644531404,0.1709338595377827,0.8400715680923346,0.6135389807863528,0.5708937711297208,0.413811009643989,0.4452727006468009,0.2967752901470712,0.4722928546393084,0.4702449437060371,0.2167477152062127,0.1223253756087816,0.2320139102714518,0.4988136565653303,788.9377289377289,805.4578754578755,802.6373626373627,806.6666666666667,964.6153846153846,955.7509157509157,-0.494995,0.054199,0.883667,-2.332764,-4.515991,-1.114044,1,1,1,1,1,95.000000
2025-03-13 17:32:28.025,1.105156143390632,0.9934871664439735,0.8938343869404727,0.6785632628838785,0.7958728399783755,0.6621422794377899,0.5530762020830795,0.1709338595377827,0.8634573062258915,0.5573080741863671,0.5078370763443187,0.413811009643989,0.4943915269624588,0.2769878928190497,0.4389157849504882,0.4702449437060371,0.2391255325900375,0.1284877962319351,0.1467506244313707,0.4988136565653303,791.3553113553114,792.1611721611722,801.025641025641,794.1758241758242,875.5677655677656,883.2234432234433,-0.453552,0.065247,0.884094,3.304749,-0.994415,-3.117828,1,1,1,1,1,95.000000
2025-03-13 17:32:28.539,0.8724678151141622,0.4621774026591211,0.04870631299177765,0.6785632628838785,0.5424964221597822,0.265739448926936,0.005876023081815748,0.1709338595377827,0.6252529914447017,0.3922413948544803,-0.007428589629534773,0.413811009643989,0.465334337745483,0.2667909257117717,0.3124673699131792,0.4702449437060371,0.2373221214399669,0.2620925913719247,-0.04188249436672344,0.4988136565653303,777.6556776556777,795.7875457875458,805.8608058608058,809.0842490842491,808.2783882783883,654.3589743589744,-0.462769,0.062317,0.883362,0.837402,-1.166382,-1.158905,1,1,1,1,1,95.000000
2025-03-13 17:32:29.029,0.6337101984212183,0.08858017878597606,-0.123872230570735,0.1892986384176669,0.2813547059334098,-0.02018654907112803,-0.1444316575224554,0.1020781136313136,0.5972605838893711,0.3366703007329978,0.04071707582277204,0.4788069195121334,0.4440032413734162,0.2181823226724247,0.2024299670422154,0.260728523536905,0.1202385984623318,0.2512840407697703,-0.1377233048020983,-0.1030840580072066,803.040293040293,801.025641025641,800.6227106227107,802.2344322344322,740.1831501831502,616.080586080586,-0.482422,0.061584,0.865479,0.022430,-0.411224,1.106567,1,1,1,1,1,95.000000
2025-03-13 17:32:29.527,0.3497513881262672,-0.1160431171864298,0.1582862920029453,0.5599722269386157,0.01871842951023631,-0.1043473620838866,-0.09357694673524644,0.04388749496635796,0.6803566455821518,0.2744408032639614,0.08681559397313202,0.6684317308068275,0.466697205497991,0.2960287887291712,0.291161064509291,0.3497783353576786,0.1165455622454777,0.3987143295508009,-0.1104783518345823,-0.1433771896050219,798.2051282051282,800.6227106227107,804.2490842490843,811.0989010989011,727.2893772893773,630.5860805860806,-0.482117,0.055542,0.869141,-8.471222,-5.001984,16.000366,1,1,1,1,1,95.000000
2025-03-13 17:32:30.025,0.4877164253353056,0.1121597279190554,0.4544178447698528,0.6032501208015765,0.2312092174170617,0.1432309379636439,-0.004462038611759854,0.09651412803931439,0.6391634438434411,0.2685122158394283,0.4516414161326138,0.6687420340641692,0.5611097843211991,0.4320154388991425,0.2967817880669888,0.440805916092994,0.2196513521950818,0.3753770412494281,-0.06243273550550481,-0.03742601965927624,795.3846153846154,796.5934065934066,790.952380952381,788.9377289377289,883.6263736263736,713.1868131868132,-0.470520,0.089783,0.868225,-1.936493,-2.429962,5.951538,1,1,1,1,1,95.000000
2025-03-13 17:32:30.410,,,,,,,,,,,,,,,,,,,,,,,,,,,,,,,,,,,,,,,/muse/elements/blink
2025-03-13 17:32:30.525,0.6088928895069461,0.4942434376549569,0.5426255969800621,0.6796896321541233,0.3447291833574129,0.2806984784963704,0.06202603855856467,0.1342972623056157,0.5863994144185468,0.2729274531567036,0.4512869742019736,0.6231630566469115,0.6130450307827168,0.5122883024265867,0.2518211353805122,0.5024492869954276,0.3044590343788076,0.4349508694614824,0.06716047565680057,-0.01639021926294841,804.2490842490843,792.1611721611722,787.7289377289378,780.4761904761905,809.0842490842491,813.919413919414,-0.546692,0.088257,0.816162,-4.590759,6.033783,7.850647,1,1,1,1,1,95.000000
2025-03-13 17:32:31.025,0.6548567714515415,0.7598588489280651,0.513161854304281,0.6328495918344809,0.451518089250022,0.4660624316928751,0.183392308983376,0.1875130711598283,0.585399270290196,0.3276224296734271,0.4688975644637249,0.4967520673669514,0.6185916486790244,0.59564526675531,0.3208993005921134,0.5324866696791039,0.3532885173259334,0.4387647608129443,0.3508223715865588,0.06315073880032641,818.3516483516484,811.9047619047619,805.4578754578755,818.7545787545788,873.956043956044,726.0805860805862,-0.533630,0.073303,0.839111,0.538330,-5.166473,-2.534637,1,1,1,1,1,95.000000
2025-03-13 17:32:31.038,,,,,,,,,,,,,,,,,,,,,,,,,,,,,,,,,,,,,,,/muse/elements/blink
2025-03-13 17:32:31.525,0.6329952883699208,1.046995310177071,0.5919287535021546,0.3128373622522442,0.5769069743047882,0.6563586669202057,0.3566230948383698,0.3787659897330464,0.1020862737196279,0.3050038002292257,0.4233738023891592,0.04176675283765093,0.5531947251680185,0.510402186321633,0.2829745877145587,0.5765564234465733,0.2771367411839473,0.3440737528105609,0.38232128361235,0.09015836852347728,781.6849816849817,796.1904761904763,782.0879120879121,778.0586080586081,862.2710622710623,684.5787545787546,-0.506348,0.052368,0.856506,-1.405640,-3.117828,2.953339,1,1,1,1,1,95.000000
2025-03-13 17:32:32.025,0.6329952883699208,0.9460852399491858,0.5576690806862533,0.3128373622522442,0.5769069743047882,0.532539523473285,0.3430983510584936,0.3787659897330464,0.1020862737196279,0.3284298372723205,0.1963770485012475,0.04176675283765093,0.5531947251680185,0.3678772899089999,0.3114296689618206,0.5765564234465733,0.2771367411839473,0.1702052636272322,0.3333946518897112,0.09015836852347728,805.4578754578755,799.0109890109891,804.2490842490843,792.1611721611722,742.1978021978023,670.0732600732601,-0.484131,0.092407,0.858215,0.560760,-0.717773,5.577698,1,1,1,1,1,95.000000
2025-03-13 17:32:32.525,0.6329952883699208,0.6839497308264899,0.4968454965262922,0.9923358118120255,0.5769069743047882,0.3577804951733971,0.2453304061443951,0.6789666854062051,0.1020862737196279,0.2374779262835769,0.1272444945203329,0.4581056534190907,0.5531947251680185,0.2965393565798591,0.170008654173737,0.3814766436848007,0.2771367411839473,0.07345194204602255,0.009304581120087056,-0.2092424153429605,811.5018315018315,797.8021978021978,811.5018315018315,811.0989010989011,877.1794871794872,689.4139194139194,-0.451599,0.096497,0.883423,5.667419,-22.527618,-7.110443,1,1,1,1,1,95.000000
2025-03-13 17:32:33.035,0.6329952883699208,0.4428798298842143,0.3064093785800901,1.024324354407709,0.5769069743047882,0.05057456579372409,-0.02348966681117099,0.6611298643854471,0.1020862737196279,0.1984039922153478,0.1767859547021527,0.4794591310683395,0.5531947251680185,0.2616727656193495,0.1099828890488996,0.3506467562942641,0.2771367411839473,0.04169154820621604,-0.2368165076343907,-0.2242376799859272,785.7142857142858,805.8608058608058,803.8461538461539,809.0842490842491,795.3846153846154,788.1318681318681,-0.050049,0.086365,1.025696,-1.981354,-2.938385,2.041168,1,1,1,1,1,95.000000
2025-03-13 17:32:33.469,,,,,,,,,,,,,,,,,,,,,,,,,,,,,,,,,,,,,,,/muse/elements/blink
2025-03-13 17:32:33.525,0.6329952883699208,0.6311637689252781,0.4212169191865586,1.024324354407709,0.5769069743047882,0.02622422943102589,0.02157139976495915,0.6611298643854471,0.1020862737196279,0.1389980990079441,0.1677294076269616,0.4794591310683395,0.5531947251680185,0.2249900109978497,0.06269615691999271,0.3506467562942641,0.2771367411839473,0.006958805177642482,-0.2475472919142498,-0.2242376799859272,819.96336996337,806.2637362637363,808.2783882783883,803.040293040293,852.6007326007326,665.2380952380953,-0.300598,0.118164,0.914185,3.274841,23.873444,17.757416,1,1,1,1,1,95.000000
2025-03-13 17:32:34.037,0.6329952883699208,0.7528561875842655,0.5120751626647735,1.023482963641207,0.5769069743047882,-0.1409312092618444,0.218251834978776,0.6462440138160257,0.1020862737196279,-0.259546803000424,0.1621095379228432,0.4027239961958464,0.5531947251680185,0.05438593597839861,0.2405174461199172,0.3186578089353146,0.2771367411839473,-0.185806531083541,0.1128755190701201,-0.2466620512549706,802.2344322344322,789.3406593406594,802.6373626373627,795.7875457875458,845.3479853479854,683.3699633699634,-0.408936,0.112122,0.905945,0.403748,1.241150,-0.194397,1,1,1,1,1,95.000000
