TimeStamp,Delta_TP9,Delta_AF7,Delta_AF8,Delta_TP10,Theta_TP9,Theta_AF7,Theta_AF8,Theta_TP10,Alpha_TP9,Alpha_AF7,Alpha_AF8,Alpha_TP10,Beta_TP9,Beta_AF7,Beta_AF8,Beta_TP10,Gamma_TP9,Gamma_AF7,Gamma_AF8,Gamma_TP10,RAW_TP9,RAW_AF7,RAW_AF8,RAW_TP10,AUX_RIGHT,AUX_LEFT,Accelerometer_X,Accelerometer_Y,Accelerometer_Z,Gyro_X,Gyro_Y,Gyro_Z,HeadBandOn,HSI_TP9,HSI_AF7,HSI_AF8,HSI_TP10,Battery,Elements
2025-03-27 15:14:23.732,,,,,,,,,,,,,,,,,,,,,,,,,,,,,,,,,,,,,,,/muse/event/connected MuseS-9CF6
2025-03-27 15:14:23.831,0.17454032288958,-0.1383271469221515,0.1991894222613172,0.3351396904473356,0.4620582792232586,0.004281487205563682,0.07644545064470275,0.1674363850605403,1.032024731363894,0.7093108194987437,0.3168486424716345,1.190596170978292,0.5797120557267557,0.5045051701641826,0.4658160715780173,0.6685179767828855,0.4767700814959239,0.405622128825637,0.2160337635407142,0.3474549105141694,843.7362637362637,807.0695970695971,801.8315018315019,786.5201465201466,889.6703296703297,880.8058608058608,-0.230469,-0.017090,0.966675,0.381317,-1.300964,0.314026,1,1,1,1,1,100.000000
2025-03-27 15:14:23.831,0.17454032288958,-0.1383271469221515,0.1991894222613172,0.3351396904473356,0.4620582792232586,0.004281487205563682,0.07644545064470275,0.1674363850605403,1.032024731363894,0.7093108194987437,0.3168486424716345,1.190596170978292,0.5797120557267557,0.5045051701641826,0.4658160715780173,0.6685179767828855,0.4767700814959239,0.405622128825637,0.2160337635407142,0.3474549105141694,769.1941391941392,799.8168498168499,805.0549450549451,773.2234432234433,894.5054945054945,804.6520146520147,-0.230469,-0.017090,0.966675,0.381317,-1.300964,0.314026,1,1,1,1,1,100.000000
2025-03-27 15:14:23.832,0.17454032288958,-0.1383271469221515,0.1991894222613172,0.3351396904473356,0.4620582792232586,0.004281487205563682,0.07644545064470275,0.1674363850605403,1.032024731363894,0.7093108194987437,0.3168486424716345,1.190596170978292,0.5797120557267557,0.5045051701641826,0.4658160715780173,0.6685179767828855,0.4767700814959239,0.405622128825637,0.2160337635407142,0.3474549105141694,724.8717948717949,792.5641025641025,807.0695970695971,772.8205128205128,897.7289377289378,655.5677655677656,-0.230469,-0.017090,0.966675,0.381317,-1.300964,0.314026,1,1,1,1,1,100.000000
2025-03-27 15:14:23.832,0.17454032288958,-0.1383271469221515,0.1991894222613172,0.3351396904473356,0.4620582792232586,0.004281487205563682,0.07644545064470275,0.1674363850605403,1.032024731363894,0.7093108194987437,0.3168486424716345,1.190596170978292,0.5797120557267557,0.5045051701641826,0.4658160715780173,0.6685179767828855,0.4767700814959239,0.405622128825637,0.2160337635407142,0.3474549105141694,798.2051282051282,796.996336996337,807.0695970695971,792.967032967033,878.3882783882784,730.5128205128206,-0.230469,-0.017090,0.966675,0.381317,-1.300964,0.314026,1,1,1,1,1,100.000000
2025-03-27 15:14:23.832,0.17454032288958,-0.1383271469221515,0.1991894222613172,0.3351396904473356,0.4620582792232586,0.004281487205563682,0.07644545064470275,0.1674363850605403,1.032024731363894,0.7093108194987437,0.3168486424716345,1.190596170978292,0.5797120557267557,0.5045051701641826,0.4658160715780173,0.6685179767828855,0.4767700814959239,0.405622128825637,0.2160337635407142,0.3474549105141694,861.8681318681319,803.8461538461539,813.5164835164835,800.2197802197802,875.1648351648352,823.1868131868132,-0.230469,-0.017090,0.966675,0.381317,-1.300964,0.314026,1,1,1,1,1,100.000000
2025-03-27 15:14:23.832,0.17454032288958,-0.1383271469221515,0.1991894222613172,0.3351396904473356,0.4620582792232586,0.004281487205563682,0.07644545064470275,0.1674363850605403,1.032024731363894,0.7093108194987437,0.3168486424716345,1.190596170978292,0.5797120557267557,0.5045051701641826,0.4658160715780173,0.6685179767828855,0.4767700814959239,0.405622128825637,0.2160337635407142,0.3474549105141694,819.1575091575091,807.8754578754579,815.934065934066,792.1611721611722,875.5677655677656,1019.81684981685,-0.230469,-0.017090,0.966675,0.381317,-1.300964,0.314026,1,1,1,1,1,100.000000
2025-03-27 15:14:23.833,0.17454032288958,-0.1383271469221515,0.1991894222613172,0.3351396904473356,0.4620582792232586,0.004281487205563682,0.07644545064470275,0.1674363850605403,1.032024731363894,0.7093108194987437,0.3168486424716345,1.190596170978292,0.5797120557267557,0.5045051701641826,0.4658160715780173,0.6685179767828855,0.4767700814959239,0.405622128825637,0.2160337635407142,0.3474549105141694,742.6007326007326,803.4432234432235,804.6520146520147,784.1025641025641,835.6776556776557,1015.787545787546,-0.230469,-0.017090,0.966675,0.381317,-1.300964,0.314026,1,1,1,1,1,100.000000
2025-03-27 15:14:23.833,0.2507115090558822,-0.1307751410679581,0.2021075240410874,0.4332851152243044,0.4856057017958608,0.01156652955841483,0.0631308421440642,0.1733548797928599,1.032024731363894,0.7093108194987437,0.3168486424716345,1.190596170978292,0.5658590988756126,0.4893260608044233,0.4662327684359057,0.642678675355243,0.4684023491163507,0.4055105104706672,0.2275410074201983,0.3502949960997045,784.9084249084249,800.6227106227107,801.8315018315019,790.5494505494506,811.5018315018315,1043.186813186813,-0.230469,-0.017090,0.966675,0.381317,-1.300964,0.314026,1,1,1,1,1,100.000000
2025-03-27 15:14:23.834,0.2507115090558822,-0.1307751410679581,0.2021075240410874,0.4332851152243044,0.4856057017958608,0.01156652955841483,0.0631308421440642,0.1733548797928599,1.032024731363894,0.7093108194987437,0.3168486424716345,1.190596170978292,0.5658590988756126,0.4893260608044233,0.4662327684359057,0.642678675355243,0.4684023491163507,0.4055105104706672,0.2275410074201983,0.3502949960997045,856.6300366300367,804.2490842490843,803.4432234432235,804.6520146520147,830.0366300366301,849.3772893772895,-0.230469,-0.017090,0.966675,0.381317,-1.300964,0.314026,1,1,1,1,1,100.000000
2025-03-27 15:14:23.834,0.2507115090558822,-0.1307751410679581,0.2021075240410874,0.4332851152243044,0.4856057017958608,0.01156652955841483,0.0631308421440642,0.1733548797928599,1.032024731363894,0.7093108194987437,0.3168486424716345,1.190596170978292,0.5658590988756126,0.4893260608044233,0.4662327684359057,0.642678675355243,0.4684023491163507,0.4055105104706672,0.2275410074201983,0.3502949960997045,832.4542124542124,802.6373626373627,800.6227106227107,810.6959706959707,852.1978021978023,644.6886446886447,-0.230469,-0.017090,0.966675,0.381317,-1.300964,0.314026,1,1,1,1,1,100.000000
2025-03-27 15:14:23.834,0.2507115090558822,-0.1307751410679581,0.2021075240410874,0.4332851152243044,0.4856057017958608,0.01156652955841483,0.0631308421440642,0.1733548797928599,1.032024731363894,0.7093108194987437,0.3168486424716345,1.190596170978292,0.5658590988756126,0.4893260608044233,0.4662327684359057,0.642678675355243,0.4684023491163507,0.4055105104706672,0.2275410074201983,0.3502949960997045,757.9120879120879,791.7582417582418,797.8021978021978,801.4285714285714,875.1648351648352,605.2014652014652,-0.230469,-0.017090,0.966675,0.381317,-1.300964,0.314026,1,1,1,1,1,100.000000
2025-03-27 15:14:23.834,0.2507115090558822,-0.1307751410679581,0.2021075240410874,0.4332851152243044,0.4856057017958608,0.01156652955841483,0.0631308421440642,0.1733548797928599,1.032024731363894,0.7093108194987437,0.3168486424716345,1.190596170978292,0.5658590988756126,0.4893260608044233,0.4662327684359057,0.642678675355243,0.4684023491163507,0.4055105104706672,0.2275410074201983,0.3502949960997045,772.014652014652,791.7582417582418,793.7728937728938,799.4139194139194,893.6996336996338,730.5128205128206,-0.230469,-0.017090,0.966675,0.381317,-1.300964,0.314026,1,1,1,1,1,100.000000
2025-03-27 15:14:23.835,0.2507115090558822,-0.1307751410679581,0.2021075240410874,0.4332851152243044,0.4856057017958608,0.01156652955841483,0.0631308421440642,0.1733548797928599,1.032024731363894,0.7093108194987437,0.3168486424716345,1.190596170978292,0.5658590988756126,0.4893260608044233,0.4662327684359057,0.642678675355243,0.4684023491163507,0.4055105104706672,0.2275410074201983,0.3502949960997045,840.9157509157509,792.5641025641025,797.8021978021978,802.2344322344322,838.0952380952381,740.1831501831502,-0.229370,-0.017639,0.968323,0.231781,-1.495361,0.067291,1,1,1,1,1,100.000000
2025-03-27 15:14:23.835,0.2507115090558822,-0.1307751410679581,0.2021075240410874,0.4332851152243044,0.4856057017958608,0.01156652955841483,0.0631308421440642,0.1733548797928599,1.032024731363894,0.7093108194987437,0.3168486424716345,1.190596170978292,0.5658590988756126,0.4893260608044233,0.4662327684359057,0.642678675355243,0.4684023491163507,0.4055105104706672,0.2275410074201983,0.3502949960997045,851.3919413919414,792.1611721611722,797.3992673992674,812.7106227106227,817.1428571428571,695.8608058608058,-0.229370,-0.017639,0.968323,0.231781,-1.495361,0.067291,1,1,1,1,1,100.000000
2025-03-27 15:14:23.835,0.2507115090558822,-0.1307751410679581,0.2021075240410874,0.4332851152243044,0.4856057017958608,0.01156652955841483,0.0631308421440642,0.1733548797928599,1.032024731363894,0.7093108194987437,0.3168486424716345,1.190596170978292,0.5658590988756126,0.4893260608044233,0.4662327684359057,0.642678675355243,0.4684023491163507,0.4055105104706672,0.2275410074201983,0.3502949960997045,784.9084249084249,795.3846153846154,798.6080586080586,821.1721611721612,870.7326007326008,986.7765567765568,-0.229370,-0.017639,0.968323,0.231781,-1.495361,0.067291,1,1,1,1,1,100.000000
2025-03-27 15:14:23.836,0.2507115090558822,-0.1307751410679581,0.2021075240410874,0.4332851152243044,0.4856057017958608,0.01156652955841483,0.0631308421440642,0.1733548797928599,1.032024731363894,0.7093108194987437,0.3168486424716345,1.190596170978292,0.5658590988756126,0.4893260608044233,0.4662327684359057,0.642678675355243,0.4684023491163507,0.4055105104706672,0.2275410074201983,0.3502949960997045,759.5238095238095,790.5494505494506,805.8608058608058,820.7692307692308,849.3772893772895,983.956043956044,-0.229370,-0.017639,0.968323,0.231781,-1.495361,0.067291,1,1,1,1,1,100.000000
2025-03-27 15:14:23.836,0.2507115090558822,-0.1307751410679581,0.2021075240410874,0.4332851152243044,0.4856057017958608,0.01156652955841483,0.0631308421440642,0.1733548797928599,1.032024731363894,0.7093108194987437,0.3168486424716345,1.190596170978292,0.5658590988756126,0.4893260608044233,0.4662327684359057,0.642678675355243,0.4684023491163507,0.4055105104706672,0.2275410074201983,0.3502949960997045,821.1721611721612,790.952380952381,799.0109890109891,820.3663003663004,867.9120879120879,754.2857142857143,-0.229370,-0.017639,0.968323,0.231781,-1.495361,0.067291,1,1,1,1,1,100.000000
2025-03-27 15:14:23.836,0.2507115090558822,-0.1307751410679581,0.2021075240410874,0.4332851152243044,0.4856057017958608,0.01156652955841483,0.0631308421440642,0.1733548797928599,1.032024731363894,0.7093108194987437,0.3168486424716345,1.190596170978292,0.5658590988756126,0.4893260608044233,0.4662327684359057,0.642678675355243,0.4684023491163507,0.4055105104706672,0.2275410074201983,0.3502949960997045,857.4358974358975,807.8754578754579,803.040293040293,827.2161172161173,911.4285714285714,980.3296703296703,-0.229370,-0.017639,0.968323,0.231781,-1.495361,0.067291,1,1,1,1,1,100.000000
2025-03-27 15:14:23.836,0.2507115090558822,-0.1307751410679581,0.2021075240410874,0.4332851152243044,0.4856057017958608,0.01156652955841483,0.0631308421440642,0.1733548797928599,1.032024731363894,0.7093108194987437,0.3168486424716345,1.190596170978292,0.5658590988756126,0.4893260608044233,0.4662327684359057,0.642678675355243,0.4684023491163507,0.4055105104706672,0.2275410074201983,0.3502949960997045,803.4432234432235,807.4725274725275,809.4871794871796,825.2014652014652,910.6227106227107,1216.043956043956,-0.229370,-0.017639,0.968323,0.231781,-1.495361,0.067291,1,1,1,1,1,100.000000
2025-03-27 15:14:23.837,0.2507115090558822,-0.1307751410679581,0.2021075240410874,0.4332851152243044,0.4856057017958608,0.01156652955841483,0.0631308421440642,0.1733548797928599,1.032024731363894,0.7093108194987437,0.3168486424716345,1.190596170978292,0.5658590988756126,0.4893260608044233,0.4662327684359057,0.642678675355243,0.4684023491163507,0.4055105104706672,0.2275410074201983,0.3502949960997045,748.6446886446887,798.6080586080586,807.4725274725275,812.3076923076924,877.985347985348,981.5384615384615,-0.229370,-0.017639,0.968323,0.231781,-1.495361,0.067291,1,1,1,1,1,100.000000
2025-03-27 15:14:23.837,0.2507115090558822,-0.1307751410679581,0.2021075240410874,0.4332851152243044,0.4856057017958608,0.01156652955841483,0.0631308421440642,0.1733548797928599,1.032024731363894,0.7093108194987437,0.3168486424716345,1.190596170978292,0.5658590988756126,0.4893260608044233,0.4662327684359057,0.642678675355243,0.4684023491163507,0.4055105104706672,0.2275410074201983,0.3502949960997045,804.2490842490843,806.2637362637363,807.0695970695971,812.3076923076924,829.6336996336996,689.8168498168499,-0.229370,-0.017639,0.968323,0.231781,-1.495361,0.067291,1,1,1,1,1,100.000000
2025-03-27 15:14:23.837,0.2507115090558822,-0.1307751410679581,0.2021075240410874,0.4332851152243044,0.4856057017958608,0.01156652955841483,0.0631308421440642,0.1733548797928599,1.032024731363894,0.7093108194987437,0.3168486424716345,1.190596170978292,0.5658590988756126,0.4893260608044233,0.4662327684359057,0.642678675355243,0.4684023491163507,0.4055105104706672,0.2275410074201983,0.3502949960997045,862.6739926739926,807.8754578754579,808.2783882783883,814.3223443223443,790.5494505494506,558.8644688644689,-0.229370,-0.017639,0.968323,0.231781,-1.495361,0.067291,1,1,1,1,1,100.000000
2025-03-27 15:14:23.837,0.2507115090558822,-0.1307751410679581,0.2021075240410874,0.4332851152243044,0.4856057017958608,0.01156652955841483,0.0631308421440642,0.1733548797928599,1.032024731363894,0.7093108194987437,0.3168486424716345,1.190596170978292,0.5658590988756126,0.4893260608044233,0.4662327684359057,0.642678675355243,0.4684023491163507,0.4055105104706672,0.2275410074201983,0.3502949960997045,820.7692307692308,799.8168498168499,810.2930402930403,805.4578754578755,828.8278388278388,610.4395604395604,-0.229370,-0.017639,0.968323,0.231781,-1.495361,0.067291,1,1,1,1,1,100.000000
2025-03-27 15:14:23.838,0.2507115090558822,-0.1307751410679581,0.2021075240410874,0.4332851152243044,0.4856057017958608,0.01156652955841483,0.0631308421440642,0.1733548797928599,1.032024731363894,0.7093108194987437,0.3168486424716345,1.190596170978292,0.5658590988756126,0.4893260608044233,0.4662327684359057,0.642678675355243,0.4684023491163507,0.4055105104706672,0.2275410074201983,0.3502949960997045,738.5714285714286,802.2344322344322,811.0989010989011,791.3553113553114,860.2564102564103,880,-0.229370,-0.017639,0.968323,0.231781,-1.495361,0.067291,1,1,1,1,1,100.000000
2025-03-27 15:14:23.838,0.2507115090558822,-0.1307751410679581,0.2021075240410874,0.4332851152243044,0.4856057017958608,0.01156652955841483,0.0631308421440642,0.1733548797928599,1.032024731363894,0.7093108194987437,0.3168486424716345,1.190596170978292,0.5658590988756126,0.4893260608044233,0.4662327684359057,0.642678675355243,0.4684023491163507,0.4055105104706672,0.2275410074201983,0.3502949960997045,767.1794871794872,799.0109890109891,811.9047619047619,792.5641025641025,869.5238095238095,809.4871794871796,-0.229980,-0.017639,0.969849,0.628052,-1.143951,0.471039,1,1,1,1,1,100.000000
2025-03-27 15:14:23.839,0.2507115090558822,-0.1307751410679581,0.2021075240410874,0.4332851152243044,0.4856057017958608,0.01156652955841483,0.0631308421440642,0.1733548797928599,1.032024731363894,0.7093108194987437,0.3168486424716345,1.190596170978292,0.5658590988756126,0.4893260608044233,0.4662327684359057,0.642678675355243,0.4684023491163507,0.4055105104706672,0.2275410074201983,0.3502949960997045,850.5860805860806,802.2344322344322,815.934065934066,811.5018315018315,898.5347985347986,724.0659340659341,-0.229980,-0.017639,0.969849,0.628052,-1.143951,0.471039,1,1,1,1,1,100.000000
2025-03-27 15:14:23.839,0.2507115090558822,-0.1307751410679581,0.2021075240410874,0.4332851152243044,0.4856057017958608,0.01156652955841483,0.0631308421440642,0.1733548797928599,1.032024731363894,0.7093108194987437,0.3168486424716345,1.190596170978292,0.5658590988756126,0.4893260608044233,0.4662327684359057,0.642678675355243,0.4684023491163507,0.4055105104706672,0.2275410074201983,0.3502949960997045,838.901098901099,812.3076923076924,812.3076923076924,813.1135531135532,929.5604395604396,742.1978021978023,-0.229980,-0.017639,0.969849,0.628052,-1.143951,0.471039,1,1,1,1,1,100.000000
2025-03-27 15:14:23.839,0.2507115090558822,-0.1307751410679581,0.2021075240410874,0.4332851152243044,0.4856057017958608,0.01156652955841483,0.0631308421440642,0.1733548797928599,1.032024731363894,0.7093108194987437,0.3168486424716345,1.190596170978292,0.5658590988756126,0.4893260608044233,0.4662327684359057,0.642678675355243,0.4684023491163507,0.4055105104706672,0.2275410074201983,0.3502949960997045,749.047619047619,806.6666666666667,803.8461538461539,784.1025641025641,904.1758241758242,765.9706959706959,-0.229980,-0.017639,0.969849,0.628052,-1.143951,0.471039,1,1,1,1,1,100.000000
2025-03-27 15:14:23.839,0.2507115090558822,-0.1307751410679581,0.2021075240410874,0.4332851152243044,0.4856057017958608,0.01156652955841483,0.0631308421440642,0.1733548797928599,1.032024731363894,0.7093108194987437,0.3168486424716345,1.190596170978292,0.5658590988756126,0.4893260608044233,0.4662327684359057,0.642678675355243,0.4684023491163507,0.4055105104706672,0.2275410074201983,0.3502949960997045,745.0183150183151,798.6080586080586,797.3992673992674,767.985347985348,839.3040293040293,738.5714285714286,-0.229980,-0.017639,0.969849,0.628052,-1.143951,0.471039,1,1,1,1,1,100.000000
2025-03-27 15:14:23.840,0.2507115090558822,-0.1307751410679581,0.2021075240410874,0.4332851152243044,0.4856057017958608,0.01156652955841483,0.0631308421440642,0.1733548797928599,1.032024731363894,0.7093108194987437,0.3168486424716345,1.190596170978292,0.5658590988756126,0.4893260608044233,0.4662327684359057,0.642678675355243,0.4684023491163507,0.4055105104706672,0.2275410074201983,0.3502949960997045,817.5457875457876,803.040293040293,796.1904761904763,780.0732600732601,804.6520146520147,944.8717948717949,-0.229980,-0.017639,0.969849,0.628052,-1.143951,0.471039,1,1,1,1,1,100.000000
2025-03-27 15:14:23.840,0.2507115090558822,-0.1307751410679581,0.2021075240410874,0.4332851152243044,0.4856057017958608,0.01156652955841483,0.0631308421440642,0.1733548797928599,1.032024731363894,0.7093108194987437,0.3168486424716345,1.190596170978292,0.5658590988756126,0.4893260608044233,0.4662327684359057,0.642678675355243,0.4684023491163507,0.4055105104706672,0.2275410074201983,0.3502949960997045,839.3040293040293,809.4871794871796,804.2490842490843,794.981684981685,796.5934065934066,1132.637362637363,-0.229980,-0.017639,0.969849,0.628052,-1.143951,0.471039,1,1,1,1,1,100.000000
2025-03-27 15:14:23.840,0.2507115090558822,-0.1307751410679581,0.2021075240410874,0.4332851152243044,0.4856057017958608,0.01156652955841483,0.0631308421440642,0.1733548797928599,1.032024731363894,0.7093108194987437,0.3168486424716345,1.190596170978292,0.5658590988756126,0.4893260608044233,0.4662327684359057,0.642678675355243,0.4684023491163507,0.4055105104706672,0.2275410074201983,0.3502949960997045,772.4175824175825,805.0549450549451,806.6666666666667,785.3113553113553,795.7875457875458,890.8791208791209,-0.229980,-0.017639,0.969849,0.628052,-1.143951,0.471039,1,1,1,1,1,100.000000
2025-03-27 15:14:23.840,0.2507115090558822,-0.1307751410679581,0.2021075240410874,0.4332851152243044,0.4856057017958608,0.01156652955841483,0.0631308421440642,0.1733548797928599,1.032024731363894,0.7093108194987437,0.3168486424716345,1.190596170978292,0.5658590988756126,0.4893260608044233,0.4662327684359057,0.642678675355243,0.4684023491163507,0.4055105104706672,0.2275410074201983,0.3502949960997045,738.5714285714286,817.5457875457876,805.0549450549451,780.0732600732601,784.1025641025641,634.6153846153846,-0.229980,-0.017639,0.969849,0.628052,-1.143951,0.471039,1,1,1,1,1,100.000000
2025-03-27 15:14:23.841,0.3351085900658185,-0.1315924703481303,0.2030162690055014,0.5155589921007754,0.501817502679788,0.007672025183788469,0.04095488181792732,0.1808626705024619,1.032024731363894,0.7093108194987437,0.3168486424716345,1.190596170978292,0.5583515733194212,0.4732975455647176,0.466416712623259,0.618836548877078,0.4570052535566343,0.4065218403536746,0.2319020625577144,0.3485139265700488,815.5311355311355,816.3369963369963,809.0842490842491,796.1904761904763,819.1575091575091,676.1172161172161,-0.229980,-0.017639,0.969849,0.628052,-1.143951,0.471039,1,1,1,1,1,100.000000
2025-03-27 15:14:23.841,0.3351085900658185,-0.1315924703481303,0.2030162690055014,0.5155589921007754,0.501817502679788,0.007672025183788469,0.04095488181792732,0.1808626705024619,1.032024731363894,0.7093108194987437,0.3168486424716345,1.190596170978292,0.5583515733194212,0.4732975455647176,0.466416712623259,0.618836548877078,0.4570052535566343,0.4065218403536746,0.2319020625577144,0.3485139265700488,860.2564102564103,802.6373626373627,810.6959706959707,802.2344322344322,878.3882783882784,764.7619047619048,-0.229980,-0.017639,0.969849,0.628052,-1.143951,0.471039,1,1,1,1,1,100.000000
2025-03-27 15:14:23.842,0.3351085900658185,-0.1315924703481303,0.2030162690055014,0.5155589921007754,0.501817502679788,0.007672025183788469,0.04095488181792732,0.1808626705024619,1.032024731363894,0.7093108194987437,0.3168486424716345,1.190596170978292,0.5583515733194212,0.4732975455647176,0.466416712623259,0.618836548877078,0.4570052535566343,0.4065218403536746,0.2319020625577144,0.3485139265700488,802.6373626373627,799.8168498168499,812.3076923076924,799.8168498168499,885.6410256410256,761.1355311355312,-0.229980,-0.017639,0.969849,0.628052,-1.143951,0.471039,1,1,1,1,1,100.000000
2025-03-27 15:14:23.842,0.3351085900658185,-0.1315924703481303,0.2030162690055014,0.5155589921007754,0.501817502679788,0.007672025183788469,0.04095488181792732,0.1808626705024619,1.032024731363894,0.7093108194987437,0.3168486424716345,1.190596170978292,0.5583515733194212,0.4732975455647176,0.466416712623259,0.618836548877078,0.4570052535566343,0.4065218403536746,0.2319020625577144,0.3485139265700488,741.7948717948718,796.996336996337,806.2637362637363,793.7728937728938,867.9120879120879,780.0732600732601,-0.229980,-0.017639,0.969849,0.628052,-1.143951,0.471039,1,1,1,1,1,100.000000
2025-03-27 15:14:23.842,0.3351085900658185,-0.1315924703481303,0.2030162690055014,0.5155589921007754,0.501817502679788,0.007672025183788469,0.04095488181792732,0.1808626705024619,1.032024731363894,0.7093108194987437,0.3168486424716345,1.190596170978292,0.5583515733194212,0.4732975455647176,0.466416712623259,0.618836548877078,0.4570052535566343,0.4065218403536746,0.2319020625577144,0.3485139265700488,784.5054945054945,794.5787545787546,799.8168498168499,798.6080586080586,842.5274725274726,692.2344322344322,-0.229980,-0.017639,0.969849,0.628052,-1.143951,0.471039,1,1,1,1,1,100.000000
2025-03-27 15:14:23.842,0.3351085900658185,-0.1315924703481303,0.2030162690055014,0.5155589921007754,0.501817502679788,0.007672025183788469,0.04095488181792732,0.1808626705024619,1.032024731363894,0.7093108194987437,0.3168486424716345,1.190596170978292,0.5583515733194212,0.4732975455647176,0.466416712623259,0.618836548877078,0.4570052535566343,0.4065218403536746,0.2319020625577144,0.3485139265700488,851.3919413919414,810.6959706959707,807.4725274725275,817.5457875457876,804.2490842490843,846.1538461538462,-0.229980,-0.017639,0.969849,0.628052,-1.143951,0.471039,1,1,1,1,1,100.000000
2025-03-27 15:14:23.843,0.3351085900658185,-0.1315924703481303,0.2030162690055014,0.5155589921007754,0.501817502679788,0.007672025183788469,0.04095488181792732,0.1808626705024619,1.032024731363894,0.7093108194987437,0.3168486424716345,1.190596170978292,0.5583515733194212,0.4732975455647176,0.466416712623259,0.618836548877078,0.4570052535566343,0.4065218403536746,0.2319020625577144,0.3485139265700488,828.021978021978,816.3369963369963,814.3223443223443,819.1575091575091,806.2637362637363,1078.241758241758,-0.229980,-0.017639,0.969849,0.628052,-1.143951,0.471039,1,1,1,1,1,100.000000
2025-03-27 15:14:23.843,0.3351085900658185,-0.1315924703481303,0.2030162690055014,0.5155589921007754,0.501817502679788,0.007672025183788469,0.04095488181792732,0.1808626705024619,1.032024731363894,0.7093108194987437,0.3168486424716345,1.190596170978292,0.5583515733194212,0.4732975455647176,0.466416712623259,0.618836548877078,0.4570052535566343,0.4065218403536746,0.2319020625577144,0.3485139265700488,746.6300366300367,801.025641025641,809.0842490842491,808.2783882783883,791.7582417582418,819.5604395604396,-0.229980,-0.017639,0.969849,0.628052,-1.143951,0.471039,1,1,1,1,1,100.000000
2025-03-27 15:14:23.843,0.3351085900658185,-0.1315924703481303,0.2030162690055014,0.5155589921007754,0.501817502679788,0.007672025183788469,0.04095488181792732,0.1808626705024619,1.032024731363894,0.7093108194987437,0.3168486424716345,1.190596170978292,0.5583515733194212,0.4732975455647176,0.466416712623259,0.618836548877078,0.4570052535566343,0.4065218403536746,0.2319020625577144,0.3485139265700488,765.1648351648352,794.981684981685,800.2197802197802,806.2637362637363,747.8388278388279,890.4761904761905,-0.229980,-0.017639,0.969849,0.628052,-1.143951,0.471039,1,1,1,1,1,100.000000
2025-03-27 15:14:23.843,0.3351085900658185,-0.1315924703481303,0.2030162690055014,0.5155589921007754,0.501817502679788,0.007672025183788469,0.04095488181792732,0.1808626705024619,1.032024731363894,0.7093108194987437,0.3168486424716345,1.190596170978292,0.5583515733194212,0.4732975455647176,0.466416712623259,0.618836548877078,0.4570052535566343,0.4065218403536746,0.2319020625577144,0.3485139265700488,838.0952380952381,792.5641025641025,796.996336996337,803.8461538461539,813.919413919414,1017.802197802198,-0.229980,-0.017639,0.969849,0.628052,-1.143951,0.471039,1,1,1,1,1,100.000000
2025-03-27 15:14:23.844,0.3351085900658185,-0.1315924703481303,0.2030162690055014,0.5155589921007754,0.501817502679788,0.007672025183788469,0.04095488181792732,0.1808626705024619,1.032024731363894,0.7093108194987437,0.3168486424716345,1.190596170978292,0.5583515733194212,0.4732975455647176,0.466416712623259,0.618836548877078,0.4570052535566343,0.4065218403536746,0.2319020625577144,0.3485139265700488,830.4395604395604,792.967032967033,794.1758241758242,795.3846153846154,872.7472527472528,865.0915750915751,-0.229980,-0.017639,0.969849,0.628052,-1.143951,0.471039,1,1,1,1,1,100.000000
2025-03-27 15:14:23.844,0.3351085900658185,-0.1315924703481303,0.2030162690055014,0.5155589921007754,0.501817502679788,0.007672025183788469,0.04095488181792732,0.1808626705024619,1.032024731363894,0.7093108194987437,0.3168486424716345,1.190596170978292,0.5583515733194212,0.4732975455647176,0.466416712623259,0.618836548877078,0.4570052535566343,0.4065218403536746,0.2319020625577144,0.3485139265700488,752.6739926739926,799.4139194139194,796.1904761904763,793.3699633699634,851.7948717948718,701.0989010989011,-0.229980,-0.017639,0.969849,0.628052,-1.143951,0.471039,1,1,1,1,1,100.000000
2025-03-27 15:14:23.844,0.3351085900658185,-0.1315924703481303,0.2030162690055014,0.5155589921007754,0.501817502679788,0.007672025183788469,0.04095488181792732,0.1808626705024619,1.032024731363894,0.7093108194987437,0.3168486424716345,1.190596170978292,0.5583515733194212,0.4732975455647176,0.466416712623259,0.618836548877078,0.4570052535566343,0.4065218403536746,0.2319020625577144,0.3485139265700488,748.6446886446887,801.8315018315019,804.6520146520147,797.3992673992674,828.021978021978,689.8168498168499,-0.229980,-0.017639,0.969849,0.628052,-1.143951,0.471039,1,1,1,1,1,100.000000
2025-03-27 15:14:23.844,0.3351085900658185,-0.1315924703481303,0.2030162690055014,0.5155589921007754,0.501817502679788,0.007672025183788469,0.04095488181792732,0.1808626705024619,1.032024731363894,0.7093108194987437,0.3168486424716345,1.190596170978292,0.5583515733194212,0.4732975455647176,0.466416712623259,0.618836548877078,0.4570052535566343,0.4065218403536746,0.2319020625577144,0.3485139265700488,820.3663003663004,800.2197802197802,805.0549450549451,799.0109890109891,846.5567765567765,724.4688644688645,-0.229980,-0.017639,0.969849,0.628052,-1.143951,0.471039,1,1,1,1,1,100.000000
2025-03-27 15:14:23.845,0.3351085900658185,-0.1315924703481303,0.2030162690055014,0.5155589921007754,0.501817502679788,0.007672025183788469,0.04095488181792732,0.1808626705024619,1.032024731363894,0.7093108194987437,0.3168486424716345,1.190596170978292,0.5583515733194212,0.4732975455647176,0.466416712623259,0.618836548877078,0.4570052535566343,0.4065218403536746,0.2319020625577144,0.3485139265700488,833.6630036630037,796.5934065934066,799.0109890109891,795.7875457875458,818.7545787545788,671.2820512820513,-0.229980,-0.017639,0.969849,0.628052,-1.143951,0.471039,1,1,1,1,1,100.000000
2025-03-27 15:14:23.845,0.3351085900658185,-0.1315924703481303,0.2030162690055014,0.5155589921007754,0.501817502679788,0.007672025183788469,0.04095488181792732,0.1808626705024619,1.032024731363894,0.7093108194987437,0.3168486424716345,1.190596170978292,0.5583515733194212,0.4732975455647176,0.466416712623259,0.618836548877078,0.4570052535566343,0.4065218403536746,0.2319020625577144,0.3485139265700488,766.7765567765568,798.6080586080586,802.2344322344322,794.1758241758242,832.0512820512821,705.5311355311355,-0.229675,-0.011719,0.968201,0.598145,-1.211243,0.441132,1,1,1,1,1,100.000000
2025-03-27 15:14:23.846,0.3351085900658185,-0.1315924703481303,0.2030162690055014,0.5155589921007754,0.501817502679788,0.007672025183788469,0.04095488181792732,0.1808626705024619,1.032024731363894,0.7093108194987437,0.3168486424716345,1.190596170978292,0.5583515733194212,0.4732975455647176,0.466416712623259,0.618836548877078,0.4570052535566343,0.4065218403536746,0.2319020625577144,0.3485139265700488,733.7362637362637,801.4285714285714,808.2783882783883,799.4139194139194,845.3479853479854,720.0366300366301,-0.229675,-0.011719,0.968201,0.598145,-1.211243,0.441132,1,1,1,1,1,100.000000
2025-03-27 15:14:23.846,0.3351085900658185,-0.1315924703481303,0.2030162690055014,0.5155589921007754,0.501817502679788,0.007672025183788469,0.04095488181792732,0.1808626705024619,1.032024731363894,0.7093108194987437,0.3168486424716345,1.190596170978292,0.5583515733194212,0.4732975455647176,0.466416712623259,0.618836548877078,0.4570052535566343,0.4065218403536746,0.2319020625577144,0.3485139265700488,798.6080586080586,799.8168498168499,801.8315018315019,803.040293040293,839.7069597069598,668.0586080586081,-0.229675,-0.011719,0.968201,0.598145,-1.211243,0.441132,1,1,1,1,1,100.000000
2025-03-27 15:14:23.846,0.3351085900658185,-0.1315924703481303,0.2030162690055014,0.5155589921007754,0.501817502679788,0.007672025183788469,0.04095488181792732,0.1808626705024619,1.032024731363894,0.7093108194987437,0.3168486424716345,1.190596170978292,0.5583515733194212,0.4732975455647176,0.466416712623259,0.618836548877078,0.4570052535566343,0.4065218403536746,0.2319020625577144,0.3485139265700488,838.4981684981685,794.981684981685,796.996336996337,801.025641025641,849.7802197802198,707.5457875457876,-0.229675,-0.011719,0.968201,0.598145,-1.211243,0.441132,1,1,1,1,1,100.000000
2025-03-27 15:14:23.846,0.3351085900658185,-0.1315924703481303,0.2030162690055014,0.5155589921007754,0.501817502679788,0.007672025183788469,0.04095488181792732,0.1808626705024619,1.032024731363894,0.7093108194987437,0.3168486424716345,1.190596170978292,0.5583515733194212,0.4732975455647176,0.466416712623259,0.618836548877078,0.4570052535566343,0.4065218403536746,0.2319020625577144,0.3485139265700488,795.3846153846154,796.1904761904763,801.4285714285714,795.3846153846154,801.025641025641,686.996336996337,-0.229675,-0.011719,0.968201,0.598145,-1.211243,0.441132,1,1,1,1,1,100.000000
2025-03-27 15:14:23.847,0.3351085900658185,-0.1315924703481303,0.2030162690055014,0.5155589921007754,0.501817502679788,0.007672025183788469,0.04095488181792732,0.1808626705024619,1.032024731363894,0.7093108194987437,0.3168486424716345,1.190596170978292,0.5583515733194212,0.4732975455647176,0.466416712623259,0.618836548877078,0.4570052535566343,0.4065218403536746,0.2319020625577144,0.3485139265700488,738.1684981684982,803.4432234432235,803.8461538461539,785.3113553113553,780.0732600732601,888.0586080586081,-0.229675,-0.011719,0.968201,0.598145,-1.211243,0.441132,1,1,1,1,1,100.000000
2025-03-27 15:14:23.847,0.3351085900658185,-0.1315924703481303,0.2030162690055014,0.5155589921007754,0.501817502679788,0.007672025183788469,0.04095488181792732,0.1808626705024619,1.032024731363894,0.7093108194987437,0.3168486424716345,1.190596170978292,0.5583515733194212,0.4732975455647176,0.466416712623259,0.618836548877078,0.4570052535566343,0.4065218403536746,0.2319020625577144,0.3485139265700488,780.0732600732601,796.5934065934066,809.8901098901099,791.3553113553114,821.5750915750916,1167.289377289377,-0.229675,-0.011719,0.968201,0.598145,-1.211243,0.441132,1,1,1,1,1,100.000000
2025-03-27 15:14:23.847,0.3351085900658185,-0.1315924703481303,0.2030162690055014,0.5155589921007754,0.501817502679788,0.007672025183788469,0.04095488181792732,0.1808626705024619,1.032024731363894,0.7093108194987437,0.3168486424716345,1.190596170978292,0.5583515733194212,0.4732975455647176,0.466416712623259,0.618836548877078,0.4570052535566343,0.4065218403536746,0.2319020625577144,0.3485139265700488,842.1245421245421,793.3699633699634,812.3076923076924,799.8168498168499,790.5494505494506,1113.296703296703,-0.229675,-0.011719,0.968201,0.598145,-1.211243,0.441132,1,1,1,1,1,100.000000
2025-03-27 15:14:23.847,0.3351085900658185,-0.1315924703481303,0.2030162690055014,0.5155589921007754,0.501817502679788,0.007672025183788469,0.04095488181792732,0.1808626705024619,1.032024731363894,0.7093108194987437,0.3168486424716345,1.190596170978292,0.5583515733194212,0.4732975455647176,0.466416712623259,0.618836548877078,0.4570052535566343,0.4065218403536746,0.2319020625577144,0.3485139265700488,819.5604395604396,792.967032967033,806.6666666666667,796.5934065934066,791.7582417582418,848.5714285714286,-0.229675,-0.011719,0.968201,0.598145,-1.211243,0.441132,1,1,1,1,1,100.000000
2025-03-27 15:14:23.848,0.3351085900658185,-0.1315924703481303,0.2030162690055014,0.5155589921007754,0.501817502679788,0.007672025183788469,0.04095488181792732,0.1808626705024619,1.032024731363894,0.7093108194987437,0.3168486424716345,1.190596170978292,0.5583515733194212,0.4732975455647176,0.466416712623259,0.618836548877078,0.4570052535566343,0.4065218403536746,0.2319020625577144,0.3485139265700488,753.0769230769231,799.4139194139194,807.0695970695971,791.3553113553114,867.1062271062272,660,-0.229675,-0.011719,0.968201,0.598145,-1.211243,0.441132,1,1,1,1,1,100.000000
2025-03-27 15:14:23.848,0.3351085900658185,-0.1315924703481303,0.2030162690055014,0.5155589921007754,0.501817502679788,0.007672025183788469,0.04095488181792732,0.1808626705024619,1.032024731363894,0.7093108194987437,0.3168486424716345,1.190596170978292,0.5583515733194212,0.4732975455647176,0.466416712623259,0.618836548877078,0.4570052535566343,0.4065218403536746,0.2319020625577144,0.3485139265700488,782.4908424908425,807.0695970695971,808.2783882783883,802.6373626373627,877.5824175824176,609.2307692307693,-0.229675,-0.011719,0.968201,0.598145,-1.211243,0.441132,1,1,1,1,1,100.000000
2025-03-27 15:14:23.848,0.3965253286404318,-0.1404300141602212,0.1925272997901654,0.5662922509631723,0.505772273446069,-0.01147083501927025,0.004016295866414483,0.1839572360439784,1.032024731363894,0.7093108194987437,0.3150552464817171,1.190596170978292,0.5546201587801523,0.457174720415175,0.4656026350507435,0.6019668471442696,0.4442011823525452,0.407843173416424,0.2255183079939125,0.3425326532811327,865.4945054945056,806.6666666666667,811.5018315018315,822.3809523809524,820.3663003663004,609.2307692307693,-0.229675,-0.011719,0.968201,0.598145,-1.211243,0.441132,1,1,1,1,1,100.000000
2025-03-27 15:14:23.849,0.3965253286404318,-0.1404300141602212,0.1925272997901654,0.5662922509631723,0.505772273446069,-0.01147083501927025,0.004016295866414483,0.1839572360439784,1.032024731363894,0.7093108194987437,0.3150552464817171,1.190596170978292,0.5546201587801523,0.457174720415175,0.4656026350507435,0.6019668471442696,0.4442011823525452,0.407843173416424,0.2255183079939125,0.3425326532811327,859.047619047619,796.996336996337,801.8315018315019,823.1868131868132,788.1318681318681,626.5567765567765,-0.230896,-0.009705,0.963135,0.605621,-1.166382,-0.007477,1,1,1,1,1,100.000000
2025-03-27 15:14:23.849,0.3965253286404318,-0.1404300141602212,0.1925272997901654,0.5662922509631723,0.505772273446069,-0.01147083501927025,0.004016295866414483,0.1839572360439784,1.032024731363894,0.7093108194987437,0.3150552464817171,1.190596170978292,0.5546201587801523,0.457174720415175,0.4656026350507435,0.6019668471442696,0.4442011823525452,0.407843173416424,0.2255183079939125,0.3425326532811327,773.2234432234433,786.1172161172161,795.3846153846154,810.6959706959707,812.3076923076924,598.3516483516484,-0.230896,-0.009705,0.963135,0.605621,-1.166382,-0.007477,1,1,1,1,1,100.000000
2025-03-27 15:14:23.849,0.3965253286404318,-0.1404300141602212,0.1925272997901654,0.5662922509631723,0.505772273446069,-0.01147083501927025,0.004016295866414483,0.1839572360439784,1.032024731363894,0.7093108194987437,0.3150552464817171,1.190596170978292,0.5546201587801523,0.457174720415175,0.4656026350507435,0.6019668471442696,0.4442011823525452,0.407843173416424,0.2255183079939125,0.3425326532811327,769.5970695970697,803.4432234432235,810.6959706959707,819.5604395604396,775.2380952380953,748.2417582417582,-0.230896,-0.009705,0.963135,0.605621,-1.166382,-0.007477,1,1,1,1,1,100.000000
2025-03-27 15:14:23.850,0.3965253286404318,-0.1404300141602212,0.1925272997901654,0.5662922509631723,0.505772273446069,-0.01147083501927025,0.004016295866414483,0.1839572360439784,1.032024731363894,0.7093108194987437,0.3150552464817171,1.190596170978292,0.5546201587801523,0.457174720415175,0.4656026350507435,0.6019668471442696,0.4442011823525452,0.407843173416424,0.2255183079939125,0.3425326532811327,851.3919413919414,812.3076923076924,816.7399267399268,835.2747252747253,763.956043956044,867.5091575091575,-0.230896,-0.009705,0.963135,0.605621,-1.166382,-0.007477,1,1,1,1,1,100.000000
2025-03-27 15:14:23.850,0.3965253286404318,-0.1404300141602212,0.1925272997901654,0.5662922509631723,0.505772273446069,-0.01147083501927025,0.004016295866414483,0.1839572360439784,1.032024731363894,0.7093108194987437,0.3150552464817171,1.190596170978292,0.5546201587801523,0.457174720415175,0.4656026350507435,0.6019668471442696,0.4442011823525452,0.407843173416424,0.2255183079939125,0.3425326532811327,858.2417582417582,794.1758241758242,799.4139194139194,812.3076923076924,776.4468864468864,680.952380952381,-0.230896,-0.009705,0.963135,0.605621,-1.166382,-0.007477,1,1,1,1,1,100.000000
2025-03-27 15:14:23.850,0.3965253286404318,-0.1404300141602212,0.1925272997901654,0.5662922509631723,0.505772273446069,-0.01147083501927025,0.004016295866414483,0.1839572360439784,1.032024731363894,0.7093108194987437,0.3150552464817171,1.190596170978292,0.5546201587801523,0.457174720415175,0.4656026350507435,0.6019668471442696,0.4442011823525452,0.407843173416424,0.2255183079939125,0.3425326532811327,781.2820512820513,798.2051282051282,794.5787545787546,790.1465201465202,714.3956043956044,874.3589743589744,-0.230896,-0.009705,0.963135,0.605621,-1.166382,-0.007477,1,1,1,1,1,100.000000
2025-03-27 15:14:23.850,0.3965253286404318,-0.1404300141602212,0.1925272997901654,0.5662922509631723,0.505772273446069,-0.01147083501927025,0.004016295866414483,0.1839572360439784,1.032024731363894,0.7093108194987437,0.3150552464817171,1.190596170978292,0.5546201587801523,0.457174720415175,0.4656026350507435,0.6019668471442696,0.4442011823525452,0.407843173416424,0.2255183079939125,0.3425326532811327,732.1245421245421,803.4432234432235,797.8021978021978,784.1025641025641,726.8864468864469,1006.520146520147,-0.230896,-0.009705,0.963135,0.605621,-1.166382,-0.007477,1,1,1,1,1,100.000000
2025-03-27 15:14:23.851,0.3965253286404318,-0.1404300141602212,0.1925272997901654,0.5662922509631723,0.505772273446069,-0.01147083501927025,0.004016295866414483,0.1839572360439784,1.032024731363894,0.7093108194987437,0.3150552464817171,1.190596170978292,0.5546201587801523,0.457174720415175,0.4656026350507435,0.6019668471442696,0.4442011823525452,0.407843173416424,0.2255183079939125,0.3425326532811327,799.0109890109891,807.8754578754579,801.025641025641,790.5494505494506,763.1501831501831,702.7106227106227,-0.230896,-0.009705,0.963135,0.605621,-1.166382,-0.007477,1,1,1,1,1,100.000000
2025-03-27 15:14:23.851,0.3965253286404318,-0.1404300141602212,0.1925272997901654,0.5662922509631723,0.505772273446069,-0.01147083501927025,0.004016295866414483,0.1839572360439784,1.032024731363894,0.7093108194987437,0.3150552464817171,1.190596170978292,0.5546201587801523,0.457174720415175,0.4656026350507435,0.6019668471442696,0.4442011823525452,0.407843173416424,0.2255183079939125,0.3425326532811327,853.8095238095239,807.4725274725275,806.2637362637363,796.5934065934066,799.0109890109891,682.967032967033,-0.230896,-0.009705,0.963135,0.605621,-1.166382,-0.007477,1,1,1,1,1,100.000000
2025-03-27 15:14:23.851,0.3965253286404318,-0.1404300141602212,0.1925272997901654,0.5662922509631723,0.505772273446069,-0.01147083501927025,0.004016295866414483,0.1839572360439784,1.032024731363894,0.7093108194987437,0.3150552464817171,1.190596170978292,0.5546201587801523,0.457174720415175,0.4656026350507435,0.6019668471442696,0.4442011823525452,0.407843173416424,0.2255183079939125,0.3425326532811327,807.0695970695971,802.6373626373627,803.8461538461539,789.7435897435897,837.2893772893773,925.1282051282052,-0.230896,-0.009705,0.963135,0.605621,-1.166382,-0.007477,1,1,1,1,1,100.000000
2025-03-27 15:14:23.851,0.3965253286404318,-0.1404300141602212,0.1925272997901654,0.5662922509631723,0.505772273446069,-0.01147083501927025,0.004016295866414483,0.1839572360439784,1.032024731363894,0.7093108194987437,0.3150552464817171,1.190596170978292,0.5546201587801523,0.457174720415175,0.4656026350507435,0.6019668471442696,0.4442011823525452,0.407843173416424,0.2255183079939125,0.3425326532811327,729.3040293040293,790.952380952381,800.2197802197802,784.9084249084249,890.8791208791209,762.3443223443223,-0.230896,-0.009705,0.963135,0.605621,-1.166382,-0.007477,1,1,1,1,1,100.000000
2025-03-27 15:14:23.852,0.3965253286404318,-0.1404300141602212,0.1925272997901654,0.5662922509631723,0.505772273446069,-0.01147083501927025,0.004016295866414483,0.1839572360439784,1.032024731363894,0.7093108194987437,0.3150552464817171,1.190596170978292,0.5546201587801523,0.457174720415175,0.4656026350507435,0.6019668471442696,0.4442011823525452,0.407843173416424,0.2255183079939125,0.3425326532811327,763.956043956044,790.1465201465202,807.4725274725275,793.3699633699634,956.1538461538462,781.6849816849817,-0.230896,-0.009705,0.963135,0.605621,-1.166382,-0.007477,1,1,1,1,1,100.000000
2025-03-27 15:14:23.853,0.3965253286404318,-0.1404300141602212,0.1925272997901654,0.5662922509631723,0.505772273446069,-0.01147083501927025,0.004016295866414483,0.1839572360439784,1.032024731363894,0.7093108194987437,0.3150552464817171,1.190596170978292,0.5546201587801523,0.457174720415175,0.4656026350507435,0.6019668471442696,0.4442011823525452,0.407843173416424,0.2255183079939125,0.3425326532811327,832.8571428571429,798.2051282051282,811.0989010989011,798.6080586080586,949.7069597069598,863.0769230769231,-0.229431,-0.010376,0.971436,0.299072,-1.323395,-0.545807,1,1,1,1,1,100.000000
2025-03-27 15:14:23.853,0.3965253286404318,-0.1404300141602212,0.1925272997901654,0.5662922509631723,0.505772273446069,-0.01147083501927025,0.004016295866414483,0.1839572360439784,1.032024731363894,0.7093108194987437,0.3150552464817171,1.190596170978292,0.5546201587801523,0.457174720415175,0.4656026350507435,0.6019668471442696,0.4442011823525452,0.407843173416424,0.2255183079939125,0.3425326532811327,819.5604395604396,797.3992673992674,812.3076923076924,798.2051282051282,898.9377289377289,740.989010989011,-0.229431,-0.010376,0.971436,0.299072,-1.323395,-0.545807,1,1,1,1,1,100.000000
2025-03-27 15:14:23.853,0.3965253286404318,-0.1404300141602212,0.1925272997901654,0.5662922509631723,0.505772273446069,-0.01147083501927025,0.004016295866414483,0.1839572360439784,1.032024731363894,0.7093108194987437,0.3150552464817171,1.190596170978292,0.5546201587801523,0.457174720415175,0.4656026350507435,0.6019668471442696,0.4442011823525452,0.407843173416424,0.2255183079939125,0.3425326532811327,748.2417582417582,799.4139194139194,817.5457875457876,794.1758241758242,831.2454212454213,597.948717948718,-0.229431,-0.010376,0.971436,0.299072,-1.323395,-0.545807,1,1,1,1,1,100.000000
2025-03-27 15:14:23.853,0.3965253286404318,-0.1404300141602212,0.1925272997901654,0.5662922509631723,0.505772273446069,-0.01147083501927025,0.004016295866414483,0.1839572360439784,1.032024731363894,0.7093108194987437,0.3150552464817171,1.190596170978292,0.5546201587801523,0.457174720415175,0.4656026350507435,0.6019668471442696,0.4442011823525452,0.407843173416424,0.2255183079939125,0.3425326532811327,751.0622710622711,800.2197802197802,815.1282051282052,798.6080586080586,828.021978021978,669.6703296703297,-0.229431,-0.010376,0.971436,0.299072,-1.323395,-0.545807,1,1,1,1,1,100.000000
2025-03-27 15:14:23.854,0.3965253286404318,-0.1404300141602212,0.1925272997901654,0.5662922509631723,0.505772273446069,-0.01147083501927025,0.004016295866414483,0.1839572360439784,1.032024731363894,0.7093108194987437,0.3150552464817171,1.190596170978292,0.5546201587801523,0.457174720415175,0.4656026350507435,0.6019668471442696,0.4442011823525452,0.407843173416424,0.2255183079939125,0.3425326532811327,830.0366300366301,804.2490842490843,807.0695970695971,809.0842490842491,874.7619047619048,818.7545787545788,-0.229431,-0.010376,0.971436,0.299072,-1.323395,-0.545807,1,1,1,1,1,100.000000
2025-03-27 15:14:23.854,0.3965253286404318,-0.1404300141602212,0.1925272997901654,0.5662922509631723,0.505772273446069,-0.01147083501927025,0.004016295866414483,0.1839572360439784,1.032024731363894,0.7093108194987437,0.3150552464817171,1.190596170978292,0.5546201587801523,0.457174720415175,0.4656026350507435,0.6019668471442696,0.4442011823525452,0.407843173416424,0.2255183079939125,0.3425326532811327,848.5714285714286,811.0989010989011,805.0549450549451,807.8754578754579,907.8021978021978,1100.40293040293,-0.229431,-0.010376,0.971436,0.299072,-1.323395,-0.545807,1,1,1,1,1,100.000000
2025-03-27 15:14:23.854,0.3965253286404318,-0.1404300141602212,0.1925272997901654,0.5662922509631723,0.505772273446069,-0.01147083501927025,0.004016295866414483,0.1839572360439784,1.032024731363894,0.7093108194987437,0.3150552464817171,1.190596170978292,0.5546201587801523,0.457174720415175,0.4656026350507435,0.6019668471442696,0.4442011823525452,0.407843173416424,0.2255183079939125,0.3425326532811327,772.014652014652,803.4432234432235,807.0695970695971,791.3553113553114,864.6886446886447,1091.135531135531,-0.229431,-0.010376,0.971436,0.299072,-1.323395,-0.545807,1,1,1,1,1,100.000000
2025-03-27 15:14:23.854,0.3965253286404318,-0.1404300141602212,0.1925272997901654,0.5662922509631723,0.505772273446069,-0.01147083501927025,0.004016295866414483,0.1839572360439784,1.032024731363894,0.7093108194987437,0.3150552464817171,1.190596170978292,0.5546201587801523,0.457174720415175,0.4656026350507435,0.6019668471442696,0.4442011823525452,0.407843173416424,0.2255183079939125,0.3425326532811327,749.047619047619,802.6373626373627,808.6813186813187,794.1758241758242,888.0586080586081,927.5457875457876,-0.229431,-0.010376,0.971436,0.299072,-1.323395,-0.545807,1,1,1,1,1,100.000000
2025-03-27 15:14:23.855,0.3965253286404318,-0.1404300141602212,0.1925272997901654,0.5662922509631723,0.505772273446069,-0.01147083501927025,0.004016295866414483,0.1839572360439784,1.032024731363894,0.7093108194987437,0.3150552464817171,1.190596170978292,0.5546201587801523,0.457174720415175,0.4656026350507435,0.6019668471442696,0.4442011823525452,0.407843173416424,0.2255183079939125,0.3425326532811327,828.021978021978,807.8754578754579,811.5018315018315,818.3516483516484,961.3919413919414,891.6849816849817,-0.229431,-0.010376,0.971436,0.299072,-1.323395,-0.545807,1,1,1,1,1,100.000000
2025-03-27 15:14:23.855,0.3965253286404318,-0.1404300141602212,0.1925272997901654,0.5662922509631723,0.505772273446069,-0.01147083501927025,0.004016295866414483,0.1839572360439784,1.032024731363894,0.7093108194987437,0.3150552464817171,1.190596170978292,0.5546201587801523,0.457174720415175,0.4656026350507435,0.6019668471442696,0.4442011823525452,0.407843173416424,0.2255183079939125,0.3425326532811327,861.0622710622711,804.2490842490843,806.2637362637363,819.5604395604396,898.9377289377289,746.6300366300367,-0.229431,-0.010376,0.971436,0.299072,-1.323395,-0.545807,1,1,1,1,1,100.000000
2025-03-27 15:14:23.855,0.3965253286404318,-0.1404300141602212,0.1925272997901654,0.5662922509631723,0.505772273446069,-0.01147083501927025,0.004016295866414483,0.1839572360439784,1.032024731363894,0.7093108194987437,0.3150552464817171,1.190596170978292,0.5546201587801523,0.457174720415175,0.4656026350507435,0.6019668471442696,0.4442011823525452,0.407843173416424,0.2255183079939125,0.3425326532811327,804.2490842490843,804.6520146520147,807.4725274725275,813.919413919414,892.0879120879121,655.9706959706959,-0.229431,-0.010376,0.971436,0.299072,-1.323395,-0.545807,1,1,1,1,1,100.000000
2025-03-27 15:14:23.855,0.3965253286404318,-0.1404300141602212,0.1925272997901654,0.5662922509631723,0.505772273446069,-0.01147083501927025,0.004016295866414483,0.1839572360439784,1.032024731363894,0.7093108194987437,0.3150552464817171,1.190596170978292,0.5546201587801523,0.457174720415175,0.4656026350507435,0.6019668471442696,0.4442011823525452,0.407843173416424,0.2255183079939125,0.3425326532811327,751.8681318681319,804.2490842490843,809.8901098901099,814.7252747252747,848.1684981684982,720.4395604395604,-0.229431,-0.010376,0.971436,0.299072,-1.323395,-0.545807,1,1,1,1,1,100.000000
2025-03-27 15:14:23.856,0.3965253286404318,-0.1404300141602212,0.1925272997901654,0.5662922509631723,0.505772273446069,-0.01147083501927025,0.004016295866414483,0.1839572360439784,1.032024731363894,0.7093108194987437,0.3150552464817171,1.190596170978292,0.5546201587801523,0.457174720415175,0.4656026350507435,0.6019668471442696,0.4442011823525452,0.407843173416424,0.2255183079939125,0.3425326532811327,816.3369963369963,808.2783882783883,806.6666666666667,821.5750915750916,780.4761904761905,823.5897435897436,-0.229248,-0.014832,0.967957,-0.239258,-1.457977,-0.725250,1,1,1,1,1,100.000000
2025-03-27 15:14:23.856,0.4293947452305299,-0.1556211197932788,0.1644309102897104,0.5885028299506525,0.4968746161216323,-0.04495152157654085,-0.05135584794442516,0.1883586226405586,1.039603503967881,0.7092495221723756,0.2975845470209147,1.189717729209852,0.550354596720487,0.442720871624468,0.4629820382856662,0.5928595690614265,0.4278093851856262,0.4060932338340059,0.20838917784438,0.3341015037847013,882.4175824175825,805.4578754578755,809.4871794871796,830.8424908424909,809.8901098901099,890.0732600732601,-0.229248,-0.014832,0.967957,-0.239258,-1.457977,-0.725250,1,1,1,1,1,100.000000
2025-03-27 15:14:23.857,0.4293947452305299,-0.1556211197932788,0.1644309102897104,0.5885028299506525,0.4968746161216323,-0.04495152157654085,-0.05135584794442516,0.1883586226405586,1.039603503967881,0.7092495221723756,0.2975845470209147,1.189717729209852,0.550354596720487,0.442720871624468,0.4629820382856662,0.5928595690614265,0.4278093851856262,0.4060932338340059,0.20838917784438,0.3341015037847013,847.7655677655678,805.8608058608058,809.4871794871796,826.4102564102565,782.893772893773,967.032967032967,-0.229248,-0.014832,0.967957,-0.239258,-1.457977,-0.725250,1,1,1,1,1,100.000000
2025-03-27 15:14:23.857,0.4293947452305299,-0.1556211197932788,0.1644309102897104,0.5885028299506525,0.4968746161216323,-0.04495152157654085,-0.05135584794442516,0.1883586226405586,1.039603503967881,0.7092495221723756,0.2975845470209147,1.189717729209852,0.550354596720487,0.442720871624468,0.4629820382856662,0.5928595690614265,0.4278093851856262,0.4060932338340059,0.20838917784438,0.3341015037847013,780.8791208791209,805.0549450549451,806.2637362637363,823.5897435897436,779.6703296703297,942.0512820512821,-0.229248,-0.014832,0.967957,-0.239258,-1.457977,-0.725250,1,1,1,1,1,100.000000
2025-03-27 15:14:23.857,0.4293947452305299,-0.1556211197932788,0.1644309102897104,0.5885028299506525,0.4968746161216323,-0.04495152157654085,-0.05135584794442516,0.1883586226405586,1.039603503967881,0.7092495221723756,0.2975845470209147,1.189717729209852,0.550354596720487,0.442720871624468,0.4629820382856662,0.5928595690614265,0.4278093851856262,0.4060932338340059,0.20838917784438,0.3341015037847013,813.1135531135532,803.040293040293,807.4725274725275,824.7985347985348,846.1538461538462,840.5128205128206,-0.229248,-0.014832,0.967957,-0.239258,-1.457977,-0.725250,1,1,1,1,1,100.000000
2025-03-27 15:14:23.857,0.4293947452305299,-0.1556211197932788,0.1644309102897104,0.5885028299506525,0.4968746161216323,-0.04495152157654085,-0.05135584794442516,0.1883586226405586,1.039603503967881,0.7092495221723756,0.2975845470209147,1.189717729209852,0.550354596720487,0.442720871624468,0.4629820382856662,0.5928595690614265,0.4278093851856262,0.4060932338340059,0.20838917784438,0.3341015037847013,885.6410256410256,822.3809523809524,813.5164835164835,832.0512820512821,853.4065934065934,978.3150183150184,-0.229248,-0.014832,0.967957,-0.239258,-1.457977,-0.725250,1,1,1,1,1,100.000000
2025-03-27 15:14:23.858,0.4293947452305299,-0.1556211197932788,0.1644309102897104,0.5885028299506525,0.4968746161216323,-0.04495152157654085,-0.05135584794442516,0.1883586226405586,1.039603503967881,0.7092495221723756,0.2975845470209147,1.189717729209852,0.550354596720487,0.442720871624468,0.4629820382856662,0.5928595690614265,0.4278093851856262,0.4060932338340059,0.20838917784438,0.3341015037847013,866.7032967032967,822.3809523809524,811.5018315018315,828.021978021978,807.8754578754579,921.9047619047619,-0.229248,-0.014832,0.967957,-0.239258,-1.457977,-0.725250,1,1,1,1,1,100.000000
2025-03-27 15:14:23.858,0.4293947452305299,-0.1556211197932788,0.1644309102897104,0.5885028299506525,0.4968746161216323,-0.04495152157654085,-0.05135584794442516,0.1883586226405586,1.039603503967881,0.7092495221723756,0.2975845470209147,1.189717729209852,0.550354596720487,0.442720871624468,0.4629820382856662,0.5928595690614265,0.4278093851856262,0.4060932338340059,0.20838917784438,0.3341015037847013,779.2673992673992,809.8901098901099,805.8608058608058,810.2930402930403,802.6373626373627,951.3186813186813,-0.229248,-0.014832,0.967957,-0.239258,-1.457977,-0.725250,1,1,1,1,1,100.000000
2025-03-27 15:14:23.858,0.4293947452305299,-0.1556211197932788,0.1644309102897104,0.5885028299506525,0.4968746161216323,-0.04495152157654085,-0.05135584794442516,0.1883586226405586,1.039603503967881,0.7092495221723756,0.2975845470209147,1.189717729209852,0.550354596720487,0.442720871624468,0.4629820382856662,0.5928595690614265,0.4278093851856262,0.4060932338340059,0.20838917784438,0.3341015037847013,778.4615384615385,808.6813186813187,812.7106227106227,817.1428571428571,803.040293040293,765.5677655677656,-0.229248,-0.014832,0.967957,-0.239258,-1.457977,-0.725250,1,1,1,1,1,100.000000
2025-03-27 15:14:23.858,0.4293947452305299,-0.1556211197932788,0.1644309102897104,0.5885028299506525,0.4968746161216323,-0.04495152157654085,-0.05135584794442516,0.1883586226405586,1.039603503967881,0.7092495221723756,0.2975845470209147,1.189717729209852,0.550354596720487,0.442720871624468,0.4629820382856662,0.5928595690614265,0.4278093851856262,0.4060932338340059,0.20838917784438,0.3341015037847013,856.6300366300367,813.5164835164835,819.96336996337,832.0512820512821,791.7582417582418,610.4395604395604,-0.229248,-0.014832,0.967957,-0.239258,-1.457977,-0.725250,1,1,1,1,1,100.000000
2025-03-27 15:14:23.859,0.4293947452305299,-0.1556211197932788,0.1644309102897104,0.5885028299506525,0.4968746161216323,-0.04495152157654085,-0.05135584794442516,0.1883586226405586,1.039603503967881,0.7092495221723756,0.2975845470209147,1.189717729209852,0.550354596720487,0.442720871624468,0.4629820382856662,0.5928595690614265,0.4278093851856262,0.4060932338340059,0.20838917784438,0.3341015037847013,855.0183150183151,803.8461538461539,807.0695970695971,821.1721611721612,834.4688644688645,608.8278388278388,-0.229248,-0.014832,0.967957,-0.239258,-1.457977,-0.725250,1,1,1,1,1,100.000000
2025-03-27 15:14:23.859,0.4293947452305299,-0.1556211197932788,0.1644309102897104,0.5885028299506525,0.4968746161216323,-0.04495152157654085,-0.05135584794442516,0.1883586226405586,1.039603503967881,0.7092495221723756,0.2975845470209147,1.189717729209852,0.550354596720487,0.442720871624468,0.4629820382856662,0.5928595690614265,0.4278093851856262,0.4060932338340059,0.20838917784438,0.3341015037847013,767.985347985348,794.1758241758242,800.6227106227107,795.7875457875458,875.1648351648352,740.989010989011,-0.229248,-0.014832,0.967957,-0.239258,-1.457977,-0.725250,1,1,1,1,1,100.000000
2025-03-27 15:14:23.860,0.4293947452305299,-0.1556211197932788,0.1644309102897104,0.5885028299506525,0.4968746161216323,-0.04495152157654085,-0.05135584794442516,0.1883586226405586,1.039603503967881,0.7092495221723756,0.2975845470209147,1.189717729209852,0.550354596720487,0.442720871624468,0.4629820382856662,0.5928595690614265,0.4278093851856262,0.4060932338340059,0.20838917784438,0.3341015037847013,731.3186813186813,795.3846153846154,806.6666666666667,787.7289377289378,894.1025641025641,797.8021978021978,-0.229248,-0.014832,0.967957,-0.239258,-1.457977,-0.725250,1,1,1,1,1,100.000000
2025-03-27 15:14:23.860,0.4293947452305299,-0.1556211197932788,0.1644309102897104,0.5885028299506525,0.4968746161216323,-0.04495152157654085,-0.05135584794442516,0.1883586226405586,1.039603503967881,0.7092495221723756,0.2975845470209147,1.189717729209852,0.550354596720487,0.442720871624468,0.4629820382856662,0.5928595690614265,0.4278093851856262,0.4060932338340059,0.20838917784438,0.3341015037847013,797.3992673992674,800.6227106227107,811.0989010989011,801.4285714285714,924.3223443223443,831.2454212454213,-0.229248,-0.014832,0.967957,-0.239258,-1.457977,-0.725250,1,1,1,1,1,100.000000
2025-03-27 15:14:23.860,0.4293947452305299,-0.1556211197932788,0.1644309102897104,0.5885028299506525,0.4968746161216323,-0.04495152157654085,-0.05135584794442516,0.1883586226405586,1.039603503967881,0.7092495221723756,0.2975845470209147,1.189717729209852,0.550354596720487,0.442720871624468,0.4629820382856662,0.5928595690614265,0.4278093851856262,0.4060932338340059,0.20838917784438,0.3341015037847013,844.9450549450549,799.8168498168499,807.4725274725275,805.8608058608058,927.948717948718,827.6190476190476,-0.229248,-0.014832,0.967957,-0.239258,-1.457977,-0.725250,1,1,1,1,1,100.000000
2025-03-27 15:14:23.860,0.4293947452305299,-0.1556211197932788,0.1644309102897104,0.5885028299506525,0.4968746161216323,-0.04495152157654085,-0.05135584794442516,0.1883586226405586,1.039603503967881,0.7092495221723756,0.2975845470209147,1.189717729209852,0.550354596720487,0.442720871624468,0.4629820382856662,0.5928595690614265,0.4278093851856262,0.4060932338340059,0.20838917784438,0.3341015037847013,792.1611721611722,792.5641025641025,799.4139194139194,794.5787545787546,893.2967032967033,811.0989010989011,-0.229248,-0.014832,0.967957,-0.239258,-1.457977,-0.725250,1,1,1,1,1,100.000000
2025-03-27 15:14:23.861,0.4293947452305299,-0.1556211197932788,0.1644309102897104,0.5885028299506525,0.4968746161216323,-0.04495152157654085,-0.05135584794442516,0.1883586226405586,1.039603503967881,0.7092495221723756,0.2975845470209147,1.189717729209852,0.550354596720487,0.442720871624468,0.4629820382856662,0.5928595690614265,0.4278093851856262,0.4060932338340059,0.20838917784438,0.3341015037847013,733.3333333333334,802.6373626373627,803.040293040293,787.7289377289378,889.6703296703297,1042.783882783883,-0.229248,-0.014832,0.967957,-0.239258,-1.457977,-0.725250,1,1,1,1,1,100.000000
2025-03-27 15:14:23.861,0.4293947452305299,-0.1556211197932788,0.1644309102897104,0.5885028299506525,0.4968746161216323,-0.04495152157654085,-0.05135584794442516,0.1883586226405586,1.039603503967881,0.7092495221723756,0.2975845470209147,1.189717729209852,0.550354596720487,0.442720871624468,0.4629820382856662,0.5928595690614265,0.4278093851856262,0.4060932338340059,0.20838917784438,0.3341015037847013,779.6703296703297,791.3553113553114,798.6080586080586,792.5641025641025,835.6776556776557,1056.483516483516,-0.229248,-0.014832,0.967957,-0.239258,-1.457977,-0.725250,1,1,1,1,1,100.000000
2025-03-27 15:14:23.861,0.4293947452305299,-0.1556211197932788,0.1644309102897104,0.5885028299506525,0.4968746161216323,-0.04495152157654085,-0.05135584794442516,0.1883586226405586,1.039603503967881,0.7092495221723756,0.2975845470209147,1.189717729209852,0.550354596720487,0.442720871624468,0.4629820382856662,0.5928595690614265,0.4278093851856262,0.4060932338340059,0.20838917784438,0.3341015037847013,833.6630036630037,781.2820512820513,798.2051282051282,796.1904761904763,815.1282051282052,902.1611721611722,-0.229248,-0.014832,0.967957,-0.239258,-1.457977,-0.725250,1,1,1,1,1,100.000000
2025-03-27 15:14:23.861,0.4293947452305299,-0.1556211197932788,0.1644309102897104,0.5885028299506525,0.4968746161216323,-0.04495152157654085,-0.05135584794442516,0.1883586226405586,1.039603503967881,0.7092495221723756,0.2975845470209147,1.189717729209852,0.550354596720487,0.442720871624468,0.4629820382856662,0.5928595690614265,0.4278093851856262,0.4060932338340059,0.20838917784438,0.3341015037847013,810.6959706959707,802.2344322344322,811.9047619047619,795.3846153846154,862.2710622710623,857.4358974358975,-0.229248,-0.014832,0.967957,-0.239258,-1.457977,-0.725250,1,1,1,1,1,100.000000
2025-03-27 15:14:23.862,0.4293947452305299,-0.1556211197932788,0.1644309102897104,0.5885028299506525,0.4968746161216323,-0.04495152157654085,-0.05135584794442516,0.1883586226405586,1.039603503967881,0.7092495221723756,0.2975845470209147,1.189717729209852,0.550354596720487,0.442720871624468,0.4629820382856662,0.5928595690614265,0.4278093851856262,0.4060932338340059,0.20838917784438,0.3341015037847013,728.0952380952381,799.4139194139194,807.8754578754579,781.2820512820513,863.4798534798535,740.5860805860806,-0.229248,-0.014832,0.967957,-0.239258,-1.457977,-0.725250,1,1,1,1,1,100.000000
2025-03-27 15:14:23.862,0.4293947452305299,-0.1556211197932788,0.1644309102897104,0.5885028299506525,0.4968746161216323,-0.04495152157654085,-0.05135584794442516,0.1883586226405586,1.039603503967881,0.7092495221723756,0.2975845470209147,1.189717729209852,0.550354596720487,0.442720871624468,0.4629820382856662,0.5928595690614265,0.4278093851856262,0.4060932338340059,0.20838917784438,0.3341015037847013,743.0036630036631,800.2197802197802,802.6373626373627,786.1172161172161,817.1428571428571,624.5421245421246,-0.229248,-0.014832,0.967957,-0.239258,-1.457977,-0.725250,1,1,1,1,1,100.000000
2025-03-27 15:14:23.862,0.4293947452305299,-0.1556211197932788,0.1644309102897104,0.5885028299506525,0.4968746161216323,-0.04495152157654085,-0.05135584794442516,0.1883586226405586,1.039603503967881,0.7092495221723756,0.2975845470209147,1.189717729209852,0.550354596720487,0.442720871624468,0.4629820382856662,0.5928595690614265,0.4278093851856262,0.4060932338340059,0.20838917784438,0.3341015037847013,825.2014652014652,806.2637362637363,807.8754578754579,804.2490842490843,778.8644688644689,539.92673992674,-0.229248,-0.014832,0.967957,-0.239258,-1.457977,-0.725250,1,1,1,1,1,100.000000
2025-03-27 15:14:23.863,0.4293947452305299,-0.1556211197932788,0.1644309102897104,0.5885028299506525,0.4968746161216323,-0.04495152157654085,-0.05135584794442516,0.1883586226405586,1.039603503967881,0.7092495221723756,0.2975845470209147,1.189717729209852,0.550354596720487,0.442720871624468,0.4629820382856662,0.5928595690614265,0.4278093851856262,0.4060932338340059,0.20838917784438,0.3341015037847013,828.8278388278388,808.6813186813187,810.2930402930403,809.4871794871796,738.5714285714286,580.2197802197802,-0.229248,-0.014832,0.967957,-0.239258,-1.457977,-0.725250,1,1,1,1,1,100.000000
2025-03-27 15:14:23.863,0.4293947452305299,-0.1556211197932788,0.1644309102897104,0.5885028299506525,0.4968746161216323,-0.04495152157654085,-0.05135584794442516,0.1883586226405586,1.039603503967881,0.7092495221723756,0.2975845470209147,1.189717729209852,0.550354596720487,0.442720871624468,0.4629820382856662,0.5928595690614265,0.4278093851856262,0.4060932338340059,0.20838917784438,0.3341015037847013,751.8681318681319,803.040293040293,809.4871794871796,799.4139194139194,787.3260073260074,801.4285714285714,-0.226501,-0.018127,0.971252,0.186920,-0.837402,-0.306549,1,1,1,1,1,100.000000
2025-03-27 15:14:23.863,0.4293947452305299,-0.1556211197932788,0.1644309102897104,0.5885028299506525,0.4968746161216323,-0.04495152157654085,-0.05135584794442516,0.1883586226405586,1.039603503967881,0.7092495221723756,0.2975845470209147,1.189717729209852,0.550354596720487,0.442720871624468,0.4629820382856662,0.5928595690614265,0.4278093851856262,0.4060932338340059,0.20838917784438,0.3341015037847013,755.4945054945055,792.5641025641025,813.1135531135532,809.4871794871796,865.8974358974359,779.2673992673992,-0.226501,-0.018127,0.971252,0.186920,-0.837402,-0.306549,1,1,1,1,1,100.000000
2025-03-27 15:14:23.863,0.4293947452305299,-0.1556211197932788,0.1644309102897104,0.5885028299506525,0.4968746161216323,-0.04495152157654085,-0.05135584794442516,0.1883586226405586,1.039603503967881,0.7092495221723756,0.2975845470209147,1.189717729209852,0.550354596720487,0.442720871624468,0.4629820382856662,0.5928595690614265,0.4278093851856262,0.4060932338340059,0.20838917784438,0.3341015037847013,833.6630036630037,805.4578754578755,813.1135531135532,828.021978021978,844.1391941391942,829.6336996336996,-0.226501,-0.018127,0.971252,0.186920,-0.837402,-0.306549,1,1,1,1,1,100.000000
2025-03-27 15:14:23.864,0.4396272942670525,-0.1712103557433083,0.1168873124891781,0.5921455697800797,0.4856586056457573,-0.08504141171717272,-0.1294819996726556,0.2097294986739985,1.069908894347815,0.6701885013344329,0.2783765482140326,1.251748790182663,0.5416833964741044,0.4298828587387135,0.4581111237258412,0.5894537237077668,0.4065479951298122,0.3990400173959078,0.1828101709103445,0.3253270951366786,842.1245421245421,805.8608058608058,811.0989010989011,820.7692307692308,808.2783882783883,929.5604395604396,-0.226501,-0.018127,0.971252,0.186920,-0.837402,-0.306549,1,1,1,1,1,100.000000
2025-03-27 15:14:23.864,0.4396272942670525,-0.1712103557433083,0.1168873124891781,0.5921455697800797,0.4856586056457573,-0.08504141171717272,-0.1294819996726556,0.2097294986739985,1.069908894347815,0.6701885013344329,0.2783765482140326,1.251748790182663,0.5416833964741044,0.4298828587387135,0.4581111237258412,0.5894537237077668,0.4065479951298122,0.3990400173959078,0.1828101709103445,0.3253270951366786,767.5824175824176,796.996336996337,808.2783882783883,801.8315018315019,835.2747252747253,767.1794871794872,-0.226501,-0.018127,0.971252,0.186920,-0.837402,-0.306549,1,1,1,1,1,100.000000
2025-03-27 15:14:23.865,0.4396272942670525,-0.1712103557433083,0.1168873124891781,0.5921455697800797,0.4856586056457573,-0.08504141171717272,-0.1294819996726556,0.2097294986739985,1.069908894347815,0.6701885013344329,0.2783765482140326,1.251748790182663,0.5416833964741044,0.4298828587387135,0.4581111237258412,0.5894537237077668,0.4065479951298122,0.3990400173959078,0.1828101709103445,0.3253270951366786,727.2893772893773,808.2783882783883,808.6813186813187,797.3992673992674,880.4029304029305,998.4615384615385,-0.226501,-0.018127,0.971252,0.186920,-0.837402,-0.306549,1,1,1,1,1,100.000000
2025-03-27 15:14:23.865,0.4396272942670525,-0.1712103557433083,0.1168873124891781,0.5921455697800797,0.4856586056457573,-0.08504141171717272,-0.1294819996726556,0.2097294986739985,1.069908894347815,0.6701885013344329,0.2783765482140326,1.251748790182663,0.5416833964741044,0.4298828587387135,0.4581111237258412,0.5894537237077668,0.4065479951298122,0.3990400173959078,0.1828101709103445,0.3253270951366786,789.3406593406594,810.2930402930403,805.8608058608058,801.4285714285714,838.4981684981685,1134.249084249084,-0.226501,-0.018127,0.971252,0.186920,-0.837402,-0.306549,1,1,1,1,1,100.000000
2025-03-27 15:14:23.865,0.4396272942670525,-0.1712103557433083,0.1168873124891781,0.5921455697800797,0.4856586056457573,-0.08504141171717272,-0.1294819996726556,0.2097294986739985,1.069908894347815,0.6701885013344329,0.2783765482140326,1.251748790182663,0.5416833964741044,0.4298828587387135,0.4581111237258412,0.5894537237077668,0.4065479951298122,0.3990400173959078,0.1828101709103445,0.3253270951366786,837.6923076923077,805.4578754578755,807.0695970695971,811.5018315018315,805.8608058608058,1016.996336996337,-0.226501,-0.018127,0.971252,0.186920,-0.837402,-0.306549,1,1,1,1,1,100.000000
2025-03-27 15:14:23.865,0.4396272942670525,-0.1712103557433083,0.1168873124891781,0.5921455697800797,0.4856586056457573,-0.08504141171717272,-0.1294819996726556,0.2097294986739985,1.069908894347815,0.6701885013344329,0.2783765482140326,1.251748790182663,0.5416833964741044,0.4298828587387135,0.4581111237258412,0.5894537237077668,0.4065479951298122,0.3990400173959078,0.1828101709103445,0.3253270951366786,802.2344322344322,796.1904761904763,811.0989010989011,811.9047619047619,843.7362637362637,754.6886446886447,-0.226501,-0.018127,0.971252,0.186920,-0.837402,-0.306549,1,1,1,1,1,100.000000
2025-03-27 15:14:23.866,0.4396272942670525,-0.1712103557433083,0.1168873124891781,0.5921455697800797,0.4856586056457573,-0.08504141171717272,-0.1294819996726556,0.2097294986739985,1.069908894347815,0.6701885013344329,0.2783765482140326,1.251748790182663,0.5416833964741044,0.4298828587387135,0.4581111237258412,0.5894537237077668,0.4065479951298122,0.3990400173959078,0.1828101709103445,0.3253270951366786,740.1831501831502,794.981684981685,805.0549450549451,797.8021978021978,799.8168498168499,572.967032967033,-0.226501,-0.018127,0.971252,0.186920,-0.837402,-0.306549,1,1,1,1,1,100.000000
2025-03-27 15:14:23.866,0.4396272942670525,-0.1712103557433083,0.1168873124891781,0.5921455697800797,0.4856586056457573,-0.08504141171717272,-0.1294819996726556,0.2097294986739985,1.069908894347815,0.6701885013344329,0.2783765482140326,1.251748790182663,0.5416833964741044,0.4298828587387135,0.4581111237258412,0.5894537237077668,0.4065479951298122,0.3990400173959078,0.1828101709103445,0.3253270951366786,776.8498168498169,793.3699633699634,801.025641025641,797.8021978021978,780.4761904761905,580.2197802197802,-0.226501,-0.018127,0.971252,0.186920,-0.837402,-0.306549,1,1,1,1,1,100.000000
2025-03-27 15:14:23.866,0.4396272942670525,-0.1712103557433083,0.1168873124891781,0.5921455697800797,0.4856586056457573,-0.08504141171717272,-0.1294819996726556,0.2097294986739985,1.069908894347815,0.6701885013344329,0.2783765482140326,1.251748790182663,0.5416833964741044,0.4298828587387135,0.4581111237258412,0.5894537237077668,0.4065479951298122,0.3990400173959078,0.1828101709103445,0.3253270951366786,843.7362637362637,796.1904761904763,801.8315018315019,801.8315018315019,792.1611721611722,586.2637362637363,-0.226501,-0.018127,0.971252,0.186920,-0.837402,-0.306549,1,1,1,1,1,100.000000
2025-03-27 15:14:23.867,0.4396272942670525,-0.1712103557433083,0.1168873124891781,0.5921455697800797,0.4856586056457573,-0.08504141171717272,-0.1294819996726556,0.2097294986739985,1.069908894347815,0.6701885013344329,0.2783765482140326,1.251748790182663,0.5416833964741044,0.4298828587387135,0.4581111237258412,0.5894537237077668,0.4065479951298122,0.3990400173959078,0.1828101709103445,0.3253270951366786,828.021978021978,803.4432234432235,801.025641025641,793.7728937728938,794.981684981685,631.3919413919414,-0.229004,-0.023804,0.969543,0.478516,-0.328979,-0.022430,1,1,1,1,1,100.000000
2025-03-27 15:14:23.867,0.4396272942670525,-0.1712103557433083,0.1168873124891781,0.5921455697800797,0.4856586056457573,-0.08504141171717272,-0.1294819996726556,0.2097294986739985,1.069908894347815,0.6701885013344329,0.2783765482140326,1.251748790182663,0.5416833964741044,0.4298828587387135,0.4581111237258412,0.5894537237077668,0.4065479951298122,0.3990400173959078,0.1828101709103445,0.3253270951366786,759.92673992674,806.2637362637363,801.025641025641,792.1611721611722,809.4871794871796,641.0622710622711,-0.229004,-0.023804,0.969543,0.478516,-0.328979,-0.022430,1,1,1,1,1,100.000000
2025-03-27 15:14:23.867,0.4396272942670525,-0.1712103557433083,0.1168873124891781,0.5921455697800797,0.4856586056457573,-0.08504141171717272,-0.1294819996726556,0.2097294986739985,1.069908894347815,0.6701885013344329,0.2783765482140326,1.251748790182663,0.5416833964741044,0.4298828587387135,0.4581111237258412,0.5894537237077668,0.4065479951298122,0.3990400173959078,0.1828101709103445,0.3253270951366786,771.2087912087912,809.0842490842491,797.3992673992674,795.7875457875458,756.3003663003664,559.6703296703297,-0.229004,-0.023804,0.969543,0.478516,-0.328979,-0.022430,1,1,1,1,1,100.000000
2025-03-27 15:14:23.868,0.4396272942670525,-0.1712103557433083,0.1168873124891781,0.5921455697800797,0.4856586056457573,-0.08504141171717272,-0.1294819996726556,0.2097294986739985,1.069908894347815,0.6701885013344329,0.2783765482140326,1.251748790182663,0.5416833964741044,0.4298828587387135,0.4581111237258412,0.5894537237077668,0.4065479951298122,0.3990400173959078,0.1828101709103445,0.3253270951366786,844.1391941391942,809.8901098901099,802.6373626373627,799.0109890109891,767.5824175824176,589.4871794871796,-0.229004,-0.023804,0.969543,0.478516,-0.328979,-0.022430,1,1,1,1,1,100.000000
2025-03-27 15:14:23.868,0.4396272942670525,-0.1712103557433083,0.1168873124891781,0.5921455697800797,0.4856586056457573,-0.08504141171717272,-0.1294819996726556,0.2097294986739985,1.069908894347815,0.6701885013344329,0.2783765482140326,1.251748790182663,0.5416833964741044,0.4298828587387135,0.4581111237258412,0.5894537237077668,0.4065479951298122,0.3990400173959078,0.1828101709103445,0.3253270951366786,844.5421245421246,812.3076923076924,814.7252747252747,800.2197802197802,902.967032967033,799.4139194139194,-0.229004,-0.023804,0.969543,0.478516,-0.328979,-0.022430,1,1,1,1,1,100.000000
2025-03-27 15:14:23.868,0.4396272942670525,-0.1712103557433083,0.1168873124891781,0.5921455697800797,0.4856586056457573,-0.08504141171717272,-0.1294819996726556,0.2097294986739985,1.069908894347815,0.6701885013344329,0.2783765482140326,1.251748790182663,0.5416833964741044,0.4298828587387135,0.4581111237258412,0.5894537237077668,0.4065479951298122,0.3990400173959078,0.1828101709103445,0.3253270951366786,773.6263736263736,817.5457875457876,805.4578754578755,789.3406593406594,918.6813186813187,1032.710622710623,-0.229004,-0.023804,0.969543,0.478516,-0.328979,-0.022430,1,1,1,1,1,100.000000
2025-03-27 15:14:23.868,0.4396272942670525,-0.1712103557433083,0.1168873124891781,0.5921455697800797,0.4856586056457573,-0.08504141171717272,-0.1294819996726556,0.2097294986739985,1.069908894347815,0.6701885013344329,0.2783765482140326,1.251748790182663,0.5416833964741044,0.4298828587387135,0.4581111237258412,0.5894537237077668,0.4065479951298122,0.3990400173959078,0.1828101709103445,0.3253270951366786,754.2857142857143,812.3076923076924,795.3846153846154,788.1318681318681,886.8498168498169,963.8095238095239,-0.229004,-0.023804,0.969543,0.478516,-0.328979,-0.022430,1,1,1,1,1,100.000000
2025-03-27 15:14:23.869,0.4396272942670525,-0.1712103557433083,0.1168873124891781,0.5921455697800797,0.4856586056457573,-0.08504141171717272,-0.1294819996726556,0.2097294986739985,1.069908894347815,0.6701885013344329,0.2783765482140326,1.251748790182663,0.5416833964741044,0.4298828587387135,0.4581111237258412,0.5894537237077668,0.4065479951298122,0.3990400173959078,0.1828101709103445,0.3253270951366786,828.021978021978,809.0842490842491,804.2490842490843,801.8315018315019,889.6703296703297,863.4798534798535,-0.229004,-0.023804,0.969543,0.478516,-0.328979,-0.022430,1,1,1,1,1,100.000000
2025-03-27 15:14:23.869,0.4396272942670525,-0.1712103557433083,0.1168873124891781,0.5921455697800797,0.4856586056457573,-0.08504141171717272,-0.1294819996726556,0.2097294986739985,1.069908894347815,0.6701885013344329,0.2783765482140326,1.251748790182663,0.5416833964741044,0.4298828587387135,0.4581111237258412,0.5894537237077668,0.4065479951298122,0.3990400173959078,0.1828101709103445,0.3253270951366786,867.5091575091575,816.7399267399268,811.0989010989011,808.2783882783883,836.8864468864469,715.6043956043957,-0.229004,-0.023804,0.969543,0.478516,-0.328979,-0.022430,1,1,1,1,1,100.000000
2025-03-27 15:14:23.869,0.4396272942670525,-0.1712103557433083,0.1168873124891781,0.5921455697800797,0.4856586056457573,-0.08504141171717272,-0.1294819996726556,0.2097294986739985,1.069908894347815,0.6701885013344329,0.2783765482140326,1.251748790182663,0.5416833964741044,0.4298828587387135,0.4581111237258412,0.5894537237077668,0.4065479951298122,0.3990400173959078,0.1828101709103445,0.3253270951366786,792.967032967033,803.8461538461539,803.4432234432235,792.967032967033,848.5714285714286,629.7802197802198,-0.229004,-0.023804,0.969543,0.478516,-0.328979,-0.022430,1,1,1,1,1,100.000000
2025-03-27 15:14:23.869,0.4396272942670525,-0.1712103557433083,0.1168873124891781,0.5921455697800797,0.4856586056457573,-0.08504141171717272,-0.1294819996726556,0.2097294986739985,1.069908894347815,0.6701885013344329,0.2783765482140326,1.251748790182663,0.5416833964741044,0.4298828587387135,0.4581111237258412,0.5894537237077668,0.4065479951298122,0.3990400173959078,0.1828101709103445,0.3253270951366786,736.959706959707,799.4139194139194,796.1904761904763,783.2967032967033,850.1831501831502,709.1575091575091,-0.229004,-0.023804,0.969543,0.478516,-0.328979,-0.022430,1,1,1,1,1,100.000000
2025-03-27 15:14:23.870,0.4396272942670525,-0.1712103557433083,0.1168873124891781,0.5921455697800797,0.4856586056457573,-0.08504141171717272,-0.1294819996726556,0.2097294986739985,1.069908894347815,0.6701885013344329,0.2783765482140326,1.251748790182663,0.5416833964741044,0.4298828587387135,0.4581111237258412,0.5894537237077668,0.4065479951298122,0.3990400173959078,0.1828101709103445,0.3253270951366786,807.4725274725275,807.4725274725275,801.4285714285714,793.7728937728938,770.8058608058608,786.5201465201466,-0.229004,-0.023804,0.969543,0.478516,-0.328979,-0.022430,1,1,1,1,1,100.000000
2025-03-27 15:14:23.870,0.4396272942670525,-0.1712103557433083,0.1168873124891781,0.5921455697800797,0.4856586056457573,-0.08504141171717272,-0.1294819996726556,0.2097294986739985,1.069908894347815,0.6701885013344329,0.2783765482140326,1.251748790182663,0.5416833964741044,0.4298828587387135,0.4581111237258412,0.5894537237077668,0.4065479951298122,0.3990400173959078,0.1828101709103445,0.3253270951366786,868.7179487179487,807.0695970695971,810.2930402930403,810.2930402930403,698.6813186813187,639.8534798534798,-0.229980,-0.019104,0.966736,0.770111,0.082245,0.328979,1,1,1,1,1,100.000000
2025-03-27 15:14:23.870,0.4396272942670525,-0.1712103557433083,0.1168873124891781,0.5921455697800797,0.4856586056457573,-0.08504141171717272,-0.1294819996726556,0.2097294986739985,1.069908894347815,0.6701885013344329,0.2783765482140326,1.251748790182663,0.5416833964741044,0.4298828587387135,0.4581111237258412,0.5894537237077668,0.4065479951298122,0.3990400173959078,0.1828101709103445,0.3253270951366786,810.2930402930403,799.4139194139194,799.8168498168499,799.0109890109891,741.3919413919414,558.8644688644689,-0.229980,-0.019104,0.966736,0.770111,0.082245,0.328979,1,1,1,1,1,100.000000
2025-03-27 15:14:23.870,0.4396272942670525,-0.1712103557433083,0.1168873124891781,0.5921455697800797,0.4856586056457573,-0.08504141171717272,-0.1294819996726556,0.2097294986739985,1.069908894347815,0.6701885013344329,0.2783765482140326,1.251748790182663,0.5416833964741044,0.4298828587387135,0.4581111237258412,0.5894537237077668,0.4065479951298122,0.3990400173959078,0.1828101709103445,0.3253270951366786,742.1978021978023,801.4285714285714,795.7875457875458,785.7142857142858,768.3882783882784,703.5164835164835,-0.229980,-0.019104,0.966736,0.770111,0.082245,0.328979,1,1,1,1,1,100.000000
2025-03-27 15:14:23.871,0.4396272942670525,-0.1712103557433083,0.1168873124891781,0.5921455697800797,0.4856586056457573,-0.08504141171717272,-0.1294819996726556,0.2097294986739985,1.069908894347815,0.6701885013344329,0.2783765482140326,1.251748790182663,0.5416833964741044,0.4298828587387135,0.4581111237258412,0.5894537237077668,0.4065479951298122,0.3990400173959078,0.1828101709103445,0.3253270951366786,791.3553113553114,818.3516483516484,806.2637362637363,803.4432234432235,738.974358974359,857.4358974358975,-0.229980,-0.019104,0.966736,0.770111,0.082245,0.328979,1,1,1,1,1,100.000000
2025-03-27 15:14:23.871,0.4396272942670525,-0.1712103557433083,0.1168873124891781,0.5921455697800797,0.4856586056457573,-0.08504141171717272,-0.1294819996726556,0.2097294986739985,1.069908894347815,0.6701885013344329,0.2783765482140326,1.251748790182663,0.5416833964741044,0.4298828587387135,0.4581111237258412,0.5894537237077668,0.4065479951298122,0.3990400173959078,0.1828101709103445,0.3253270951366786,852.6007326007326,813.5164835164835,800.2197802197802,804.2490842490843,834.4688644688645,793.7728937728938,-0.229980,-0.019104,0.966736,0.770111,0.082245,0.328979,1,1,1,1,1,100.000000
2025-03-27 15:14:23.871,0.4423889314366133,-0.1896399656072933,0.05433440881590775,0.5912060261536488,0.4910810403435135,-0.11684611268819,-0.2316416911549623,0.257057961398277,1.134656641873466,0.5857479936182574,0.2972611572352656,1.312244798443837,0.528072594206496,0.4157833203042587,0.4499082774734702,0.5905650585870874,0.3823031988329817,0.387669182861492,0.1519664842371189,0.3167241310952885,835.6776556776557,811.5018315018315,801.025641025641,798.6080586080586,898.5347985347986,1026.263736263736,-0.229980,-0.019104,0.966736,0.770111,0.082245,0.328979,1,1,1,1,1,100.000000
2025-03-27 15:14:23.872,0.4423889314366133,-0.1896399656072933,0.05433440881590775,0.5912060261536488,0.4910810403435135,-0.11684611268819,-0.2316416911549623,0.257057961398277,1.134656641873466,0.5857479936182574,0.2972611572352656,1.312244798443837,0.528072594206496,0.4157833203042587,0.4499082774734702,0.5905650585870874,0.3823031988329817,0.387669182861492,0.1519664842371189,0.3167241310952885,757.9120879120879,809.4871794871796,803.4432234432235,792.5641025641025,885.6410256410256,1052.454212454212,-0.229980,-0.019104,0.966736,0.770111,0.082245,0.328979,1,1,1,1,1,100.000000
2025-03-27 15:14:23.872,0.4423889314366133,-0.1896399656072933,0.05433440881590775,0.5912060261536488,0.4910810403435135,-0.11684611268819,-0.2316416911549623,0.257057961398277,1.134656641873466,0.5857479936182574,0.2972611572352656,1.312244798443837,0.528072594206496,0.4157833203042587,0.4499082774734702,0.5905650585870874,0.3823031988329817,0.387669182861492,0.1519664842371189,0.3167241310952885,751.4652014652015,787.3260073260074,787.7289377289378,780.4761904761905,885.6410256410256,858.2417582417582,-0.229980,-0.019104,0.966736,0.770111,0.082245,0.328979,1,1,1,1,1,100.000000
2025-03-27 15:14:23.872,0.4423889314366133,-0.1896399656072933,0.05433440881590775,0.5912060261536488,0.4910810403435135,-0.11684611268819,-0.2316416911549623,0.257057961398277,1.134656641873466,0.5857479936182574,0.2972611572352656,1.312244798443837,0.528072594206496,0.4157833203042587,0.4499082774734702,0.5905650585870874,0.3823031988329817,0.387669182861492,0.1519664842371189,0.3167241310952885,823.992673992674,781.6849816849817,789.3406593406594,786.9230769230769,918.2783882783883,765.9706959706959,-0.229980,-0.019104,0.966736,0.770111,0.082245,0.328979,1,1,1,1,1,100.000000
2025-03-27 15:14:23.873,0.4423889314366133,-0.1896399656072933,0.05433440881590775,0.5912060261536488,0.4910810403435135,-0.11684611268819,-0.2316416911549623,0.257057961398277,1.134656641873466,0.5857479936182574,0.2972611572352656,1.312244798443837,0.528072594206496,0.4157833203042587,0.4499082774734702,0.5905650585870874,0.3823031988329817,0.387669182861492,0.1519664842371189,0.3167241310952885,832.8571428571429,804.6520146520147,802.6373626373627,794.1758241758242,948.901098901099,795.7875457875458,-0.229980,-0.019104,0.966736,0.770111,0.082245,0.328979,1,1,1,1,1,100.000000
2025-03-27 15:14:23.873,0.4423889314366133,-0.1896399656072933,0.05433440881590775,0.5912060261536488,0.4910810403435135,-0.11684611268819,-0.2316416911549623,0.257057961398277,1.134656641873466,0.5857479936182574,0.2972611572352656,1.312244798443837,0.528072594206496,0.4157833203042587,0.4499082774734702,0.5905650585870874,0.3823031988329817,0.387669182861492,0.1519664842371189,0.3167241310952885,757.9120879120879,806.2637362637363,799.8168498168499,783.2967032967033,834.0659340659341,653.956043956044,-0.229980,-0.019104,0.966736,0.770111,0.082245,0.328979,1,1,1,1,1,100.000000
2025-03-27 15:14:23.873,0.4423889314366133,-0.1896399656072933,0.05433440881590775,0.5912060261536488,0.4910810403435135,-0.11684611268819,-0.2316416911549623,0.257057961398277,1.134656641873466,0.5857479936182574,0.2972611572352656,1.312244798443837,0.528072594206496,0.4157833203042587,0.4499082774734702,0.5905650585870874,0.3823031988329817,0.387669182861492,0.1519664842371189,0.3167241310952885,732.5274725274726,803.8461538461539,796.996336996337,778.0586080586081,798.2051282051282,680.1465201465202,-0.229980,-0.019104,0.966736,0.770111,0.082245,0.328979,1,1,1,1,1,100.000000
2025-03-27 15:14:23.874,0.4423889314366133,-0.1896399656072933,0.05433440881590775,0.5912060261536488,0.4910810403435135,-0.11684611268819,-0.2316416911549623,0.257057961398277,1.134656641873466,0.5857479936182574,0.2972611572352656,1.312244798443837,0.528072594206496,0.4157833203042587,0.4499082774734702,0.5905650585870874,0.3823031988329817,0.387669182861492,0.1519664842371189,0.3167241310952885,807.0695970695971,812.7106227106227,806.2637362637363,798.6080586080586,801.8315018315019,721.2454212454213,-0.229980,-0.019104,0.966736,0.770111,0.082245,0.328979,1,1,1,1,1,100.000000
2025-03-27 15:14:23.874,0.4423889314366133,-0.1896399656072933,0.05433440881590775,0.5912060261536488,0.4910810403435135,-0.11684611268819,-0.2316416911549623,0.257057961398277,1.134656641873466,0.5857479936182574,0.2972611572352656,1.312244798443837,0.528072594206496,0.4157833203042587,0.4499082774734702,0.5905650585870874,0.3823031988329817,0.387669182861492,0.1519664842371189,0.3167241310952885,858.2417582417582,820.7692307692308,814.3223443223443,815.1282051282052,842.1245421245421,746.6300366300367,-0.229980,-0.019104,0.966736,0.770111,0.082245,0.328979,1,1,1,1,1,100.000000
2025-03-27 15:14:23.874,0.4423889314366133,-0.1896399656072933,0.05433440881590775,0.5912060261536488,0.4910810403435135,-0.11684611268819,-0.2316416911549623,0.257057961398277,1.134656641873466,0.5857479936182574,0.2972611572352656,1.312244798443837,0.528072594206496,0.4157833203042587,0.4499082774734702,0.5905650585870874,0.3823031988329817,0.387669182861492,0.1519664842371189,0.3167241310952885,801.4285714285714,807.8754578754579,803.040293040293,804.6520146520147,909.0109890109891,906.5934065934066,-0.229980,-0.019104,0.966736,0.770111,0.082245,0.328979,1,1,1,1,1,100.000000
2025-03-27 15:14:23.875,0.4423889314366133,-0.1896399656072933,0.05433440881590775,0.5912060261536488,0.4910810403435135,-0.11684611268819,-0.2316416911549623,0.257057961398277,1.134656641873466,0.5857479936182574,0.2972611572352656,1.312244798443837,0.528072594206496,0.4157833203042587,0.4499082774734702,0.5905650585870874,0.3823031988329817,0.387669182861492,0.1519664842371189,0.3167241310952885,736.1538461538462,789.7435897435897,792.1611721611722,791.7582417582418,848.5714285714286,825.2014652014652,-0.229980,-0.019104,0.966736,0.770111,0.082245,0.328979,1,1,1,1,1,100.000000
2025-03-27 15:14:23.875,0.4423889314366133,-0.1896399656072933,0.05433440881590775,0.5912060261536488,0.4910810403435135,-0.11684611268819,-0.2316416911549623,0.257057961398277,1.134656641873466,0.5857479936182574,0.2972611572352656,1.312244798443837,0.528072594206496,0.4157833203042587,0.4499082774734702,0.5905650585870874,0.3823031988329817,0.387669182861492,0.1519664842371189,0.3167241310952885,795.7875457875458,808.6813186813187,797.8021978021978,800.2197802197802,806.2637362637363,747.032967032967,-0.229980,-0.019104,0.966736,0.770111,0.082245,0.328979,1,1,1,1,1,100.000000
2025-03-27 15:14:23.875,0.4423889314366133,-0.1896399656072933,0.05433440881590775,0.5912060261536488,0.4910810403435135,-0.11684611268819,-0.2316416911549623,0.257057961398277,1.134656641873466,0.5857479936182574,0.2972611572352656,1.312244798443837,0.528072594206496,0.4157833203042587,0.4499082774734702,0.5905650585870874,0.3823031988329817,0.387669182861492,0.1519664842371189,0.3167241310952885,863.4798534798535,827.6190476190476,801.025641025641,801.8315018315019,882.4175824175825,1128.205128205128,-0.229980,-0.019104,0.966736,0.770111,0.082245,0.328979,1,1,1,1,1,100.000000
2025-03-27 15:14:23.875,0.4423889314366133,-0.1896399656072933,0.05433440881590775,0.5912060261536488,0.4910810403435135,-0.11684611268819,-0.2316416911549623,0.257057961398277,1.134656641873466,0.5857479936182574,0.2972611572352656,1.312244798443837,0.528072594206496,0.4157833203042587,0.4499082774734702,0.5905650585870874,0.3823031988329817,0.387669182861492,0.1519664842371189,0.3167241310952885,824.3956043956044,806.6666666666667,794.1758241758242,788.1318681318681,866.3003663003664,1170.915750915751,-0.229980,-0.019104,0.966736,0.770111,0.082245,0.328979,1,1,1,1,1,100.000000
2025-03-27 15:14:23.876,0.4423889314366133,-0.1896399656072933,0.05433440881590775,0.5912060261536488,0.4910810403435135,-0.11684611268819,-0.2316416911549623,0.257057961398277,1.134656641873466,0.5857479936182574,0.2972611572352656,1.312244798443837,0.528072594206496,0.4157833203042587,0.4499082774734702,0.5905650585870874,0.3823031988329817,0.387669182861492,0.1519664842371189,0.3167241310952885,749.047619047619,790.952380952381,790.952380952381,782.4908424908425,817.948717948718,807.0695970695971,-0.229980,-0.019104,0.966736,0.770111,0.082245,0.328979,1,1,1,1,1,100.000000
2025-03-27 15:14:23.876,0.4423889314366133,-0.1896399656072933,0.05433440881590775,0.5912060261536488,0.4910810403435135,-0.11684611268819,-0.2316416911549623,0.257057961398277,1.134656641873466,0.5857479936182574,0.2972611572352656,1.312244798443837,0.528072594206496,0.4157833203042587,0.4499082774734702,0.5905650585870874,0.3823031988329817,0.387669182861492,0.1519664842371189,0.3167241310952885,786.1172161172161,804.6520146520147,802.6373626373627,792.5641025641025,802.6373626373627,666.4468864468864,-0.229980,-0.019104,0.966736,0.770111,0.082245,0.328979,1,1,1,1,1,100.000000
2025-03-27 15:14:23.876,0.4423889314366133,-0.1896399656072933,0.05433440881590775,0.5912060261536488,0.4910810403435135,-0.11684611268819,-0.2316416911549623,0.257057961398277,1.134656641873466,0.5857479936182574,0.2972611572352656,1.312244798443837,0.528072594206496,0.4157833203042587,0.4499082774734702,0.5905650585870874,0.3823031988329817,0.387669182861492,0.1519664842371189,0.3167241310952885,861.0622710622711,811.0989010989011,809.8901098901099,799.4139194139194,778.4615384615385,651.1355311355312,-0.229980,-0.019104,0.966736,0.770111,0.082245,0.328979,1,1,1,1,1,100.000000
2025-03-27 15:14:23.876,0.4423889314366133,-0.1896399656072933,0.05433440881590775,0.5912060261536488,0.4910810403435135,-0.11684611268819,-0.2316416911549623,0.257057961398277,1.134656641873466,0.5857479936182574,0.2972611572352656,1.312244798443837,0.528072594206496,0.4157833203042587,0.4499082774734702,0.5905650585870874,0.3823031988329817,0.387669182861492,0.1519664842371189,0.3167241310952885,848.974358974359,813.1135531135532,811.0989010989011,802.6373626373627,830.8424908424909,643.8827838827839,-0.229980,-0.019104,0.966736,0.770111,0.082245,0.328979,1,1,1,1,1,100.000000
2025-03-27 15:14:23.877,0.4423889314366133,-0.1896399656072933,0.05433440881590775,0.5912060261536488,0.4910810403435135,-0.11684611268819,-0.2316416911549623,0.257057961398277,1.134656641873466,0.5857479936182574,0.2972611572352656,1.312244798443837,0.528072594206496,0.4157833203042587,0.4499082774734702,0.5905650585870874,0.3823031988329817,0.387669182861492,0.1519664842371189,0.3167241310952885,770,819.5604395604396,808.6813186813187,794.5787545787546,825.6043956043957,693.040293040293,-0.229980,-0.019104,0.966736,0.770111,0.082245,0.328979,1,1,1,1,1,100.000000
2025-03-27 15:14:23.877,0.4423889314366133,-0.1896399656072933,0.05433440881590775,0.5912060261536488,0.4910810403435135,-0.11684611268819,-0.2316416911549623,0.257057961398277,1.134656641873466,0.5857479936182574,0.2972611572352656,1.312244798443837,0.528072594206496,0.4157833203042587,0.4499082774734702,0.5905650585870874,0.3823031988329817,0.387669182861492,0.1519664842371189,0.3167241310952885,755.4945054945055,813.919413919414,805.0549450549451,792.5641025641025,803.8461538461539,737.7655677655678,-0.235352,-0.011292,0.965271,0.590668,0.007477,0.635529,1,1,1,1,1,100.000000
2025-03-27 15:14:23.877,0.4423889314366133,-0.1896399656072933,0.05433440881590775,0.5912060261536488,0.4910810403435135,-0.11684611268819,-0.2316416911549623,0.257057961398277,1.134656641873466,0.5857479936182574,0.2972611572352656,1.312244798443837,0.528072594206496,0.4157833203042587,0.4499082774734702,0.5905650585870874,0.3823031988329817,0.387669182861492,0.1519664842371189,0.3167241310952885,823.5897435897436,805.8608058608058,798.6080586080586,793.3699633699634,840.1098901098901,709.5604395604396,-0.235352,-0.011292,0.965271,0.590668,0.007477,0.635529,1,1,1,1,1,100.000000
2025-03-27 15:14:23.877,0.4423889314366133,-0.1896399656072933,0.05433440881590775,0.5912060261536488,0.4910810403435135,-0.11684611268819,-0.2316416911549623,0.257057961398277,1.134656641873466,0.5857479936182574,0.2972611572352656,1.312244798443837,0.528072594206496,0.4157833203042587,0.4499082774734702,0.5905650585870874,0.3823031988329817,0.387669182861492,0.1519664842371189,0.3167241310952885,844.5421245421246,807.0695970695971,802.6373626373627,797.3992673992674,823.5897435897436,846.959706959707,-0.235352,-0.011292,0.965271,0.590668,0.007477,0.635529,1,1,1,1,1,100.000000
2025-03-27 15:14:23.878,0.4423889314366133,-0.1896399656072933,0.05433440881590775,0.5912060261536488,0.4910810403435135,-0.11684611268819,-0.2316416911549623,0.257057961398277,1.134656641873466,0.5857479936182574,0.2972611572352656,1.312244798443837,0.528072594206496,0.4157833203042587,0.4499082774734702,0.5905650585870874,0.3823031988329817,0.387669182861492,0.1519664842371189,0.3167241310952885,783.2967032967033,800.6227106227107,813.919413919414,804.6520146520147,799.8168498168499,978.3150183150184,-0.235352,-0.011292,0.965271,0.590668,0.007477,0.635529,1,1,1,1,1,100.000000
2025-03-27 15:14:23.878,0.4423889314366133,-0.1896399656072933,0.05433440881590775,0.5912060261536488,0.4910810403435135,-0.11684611268819,-0.2316416911549623,0.257057961398277,1.134656641873466,0.5857479936182574,0.2972611572352656,1.312244798443837,0.528072594206496,0.4157833203042587,0.4499082774734702,0.5905650585870874,0.3823031988329817,0.387669182861492,0.1519664842371189,0.3167241310952885,748.6446886446887,795.3846153846154,808.2783882783883,800.6227106227107,815.1282051282052,819.5604395604396,-0.235352,-0.011292,0.965271,0.590668,0.007477,0.635529,1,1,1,1,1,100.000000
2025-03-27 15:14:23.878,0.4423889314366133,-0.1896399656072933,0.05433440881590775,0.5912060261536488,0.4910810403435135,-0.11684611268819,-0.2316416911549623,0.257057961398277,1.134656641873466,0.5857479936182574,0.2972611572352656,1.312244798443837,0.528072594206496,0.4157833203042587,0.4499082774734702,0.5905650585870874,0.3823031988329817,0.387669182861492,0.1519664842371189,0.3167241310952885,811.9047619047619,808.2783882783883,798.2051282051282,805.8608058608058,836.4835164835165,965.8241758241759,-0.235352,-0.011292,0.965271,0.590668,0.007477,0.635529,1,1,1,1,1,100.000000
2025-03-27 15:14:23.879,0.4423889314366133,-0.1896399656072933,0.05433440881590775,0.5912060261536488,0.4910810403435135,-0.11684611268819,-0.2316416911549623,0.257057961398277,1.134656641873466,0.5857479936182574,0.2972611572352656,1.312244798443837,0.528072594206496,0.4157833203042587,0.4499082774734702,0.5905650585870874,0.3823031988329817,0.387669182861492,0.1519664842371189,0.3167241310952885,861.4652014652015,816.3369963369963,801.4285714285714,815.934065934066,861.4652014652015,1070.586080586081,-0.235352,-0.011292,0.965271,0.590668,0.007477,0.635529,1,1,1,1,1,100.000000
2025-03-27 15:14:23.879,0.4527962803808632,-0.2148997811044331,-0.01266082603833834,0.5982698388509394,0.5301182505060548,-0.1250065279764223,-0.3545110095016469,0.3194286970305655,1.212489865468464,0.5619396916241601,0.3003241077364088,1.346628760059899,0.5137375894370768,0.3970454126015002,0.4369140880279135,0.5962239126731793,0.3601381400770495,0.3760991157252018,0.1207270574925766,0.3086548546195785,814.7252747252747,822.7838827838829,805.8608058608058,812.7106227106227,838.4981684981685,1103.223443223443,-0.235352,-0.011292,0.965271,0.590668,0.007477,0.635529,1,1,1,1,1,100.000000
2025-03-27 15:14:23.879,0.4527962803808632,-0.2148997811044331,-0.01266082603833834,0.5982698388509394,0.5301182505060548,-0.1250065279764223,-0.3545110095016469,0.3194286970305655,1.212489865468464,0.5619396916241601,0.3003241077364088,1.346628760059899,0.5137375894370768,0.3970454126015002,0.4369140880279135,0.5962239126731793,0.3601381400770495,0.3760991157252018,0.1207270574925766,0.3086548546195785,747.8388278388279,812.3076923076924,802.6373626373627,802.2344322344322,803.4432234432235,915.8608058608058,-0.235352,-0.011292,0.965271,0.590668,0.007477,0.635529,1,1,1,1,1,100.000000
2025-03-27 15:14:23.880,0.4527962803808632,-0.2148997811044331,-0.01266082603833834,0.5982698388509394,0.5301182505060548,-0.1250065279764223,-0.3545110095016469,0.3194286970305655,1.212489865468464,0.5619396916241601,0.3003241077364088,1.346628760059899,0.5137375894370768,0.3970454126015002,0.4369140880279135,0.5962239126731793,0.3601381400770495,0.3760991157252018,0.1207270574925766,0.3086548546195785,790.1465201465202,801.4285714285714,799.8168498168499,805.8608058608058,787.7289377289378,630.1831501831502,-0.235352,-0.011292,0.965271,0.590668,0.007477,0.635529,1,1,1,1,1,100.000000
2025-03-27 15:14:23.880,0.4527962803808632,-0.2148997811044331,-0.01266082603833834,0.5982698388509394,0.5301182505060548,-0.1250065279764223,-0.3545110095016469,0.3194286970305655,1.212489865468464,0.5619396916241601,0.3003241077364088,1.346628760059899,0.5137375894370768,0.3970454126015002,0.4369140880279135,0.5962239126731793,0.3601381400770495,0.3760991157252018,0.1207270574925766,0.3086548546195785,851.3919413919414,806.2637362637363,803.040293040293,814.3223443223443,782.0879120879121,511.7216117216117,-0.235352,-0.011292,0.965271,0.590668,0.007477,0.635529,1,1,1,1,1,100.000000
2025-03-27 15:14:23.880,0.4527962803808632,-0.2148997811044331,-0.01266082603833834,0.5982698388509394,0.5301182505060548,-0.1250065279764223,-0.3545110095016469,0.3194286970305655,1.212489865468464,0.5619396916241601,0.3003241077364088,1.346628760059899,0.5137375894370768,0.3970454126015002,0.4369140880279135,0.5962239126731793,0.3601381400770495,0.3760991157252018,0.1207270574925766,0.3086548546195785,829.2307692307693,815.1282051282052,810.6959706959707,816.7399267399268,826.007326007326,630.1831501831502,-0.235352,-0.011292,0.965271,0.590668,0.007477,0.635529,1,1,1,1,1,100.000000
2025-03-27 15:14:23.881,0.4527962803808632,-0.2148997811044331,-0.01266082603833834,0.5982698388509394,0.5301182505060548,-0.1250065279764223,-0.3545110095016469,0.3194286970305655,1.212489865468464,0.5619396916241601,0.3003241077364088,1.346628760059899,0.5137375894370768,0.3970454126015002,0.4369140880279135,0.5962239126731793,0.3601381400770495,0.3760991157252018,0.1207270574925766,0.3086548546195785,756.3003663003664,813.1135531135532,812.3076923076924,809.0842490842491,898.9377289377289,784.9084249084249,-0.231995,-0.013184,0.957275,0.598145,-0.852356,0.456085,1,1,1,1,1,100.000000
2025-03-27 15:14:23.881,0.4527962803808632,-0.2148997811044331,-0.01266082603833834,0.5982698388509394,0.5301182505060548,-0.1250065279764223,-0.3545110095016469,0.3194286970305655,1.212489865468464,0.5619396916241601,0.3003241077364088,1.346628760059899,0.5137375894370768,0.3970454126015002,0.4369140880279135,0.5962239126731793,0.3601381400770495,0.3760991157252018,0.1207270574925766,0.3086548546195785,775.2380952380953,802.2344322344322,813.1135531135532,815.1282051282052,886.4468864468864,769.1941391941392,-0.231995,-0.013184,0.957275,0.598145,-0.852356,0.456085,1,1,1,1,1,100.000000
2025-03-27 15:14:23.882,0.4527962803808632,-0.2148997811044331,-0.01266082603833834,0.5982698388509394,0.5301182505060548,-0.1250065279764223,-0.3545110095016469,0.3194286970305655,1.212489865468464,0.5619396916241601,0.3003241077364088,1.346628760059899,0.5137375894370768,0.3970454126015002,0.4369140880279135,0.5962239126731793,0.3601381400770495,0.3760991157252018,0.1207270574925766,0.3086548546195785,846.959706959707,798.2051282051282,811.9047619047619,826.8131868131868,891.6849816849817,803.040293040293,-0.231995,-0.013184,0.957275,0.598145,-0.852356,0.456085,1,1,1,1,1,100.000000
2025-03-27 15:14:23.882,0.4527962803808632,-0.2148997811044331,-0.01266082603833834,0.5982698388509394,0.5301182505060548,-0.1250065279764223,-0.3545110095016469,0.3194286970305655,1.212489865468464,0.5619396916241601,0.3003241077364088,1.346628760059899,0.5137375894370768,0.3970454126015002,0.4369140880279135,0.5962239126731793,0.3601381400770495,0.3760991157252018,0.1207270574925766,0.3086548546195785,841.3186813186813,807.8754578754579,810.2930402930403,823.992673992674,922.7106227106227,819.1575091575091,-0.231995,-0.013184,0.957275,0.598145,-0.852356,0.456085,1,1,1,1,1,100.000000
2025-03-27 15:14:23.882,0.4527962803808632,-0.2148997811044331,-0.01266082603833834,0.5982698388509394,0.5301182505060548,-0.1250065279764223,-0.3545110095016469,0.3194286970305655,1.212489865468464,0.5619396916241601,0.3003241077364088,1.346628760059899,0.5137375894370768,0.3970454126015002,0.4369140880279135,0.5962239126731793,0.3601381400770495,0.3760991157252018,0.1207270574925766,0.3086548546195785,762.7472527472528,805.4578754578755,807.8754578754579,809.4871794871796,865.0915750915751,785.7142857142858,-0.231995,-0.013184,0.957275,0.598145,-0.852356,0.456085,1,1,1,1,1,100.000000
2025-03-27 15:14:23.882,0.4527962803808632,-0.2148997811044331,-0.01266082603833834,0.5982698388509394,0.5301182505060548,-0.1250065279764223,-0.3545110095016469,0.3194286970305655,1.212489865468464,0.5619396916241601,0.3003241077364088,1.346628760059899,0.5137375894370768,0.3970454126015002,0.4369140880279135,0.5962239126731793,0.3601381400770495,0.3760991157252018,0.1207270574925766,0.3086548546195785,752.6739926739926,809.8901098901099,804.2490842490843,802.6373626373627,805.0549450549451,998.4615384615385,-0.231995,-0.013184,0.957275,0.598145,-0.852356,0.456085,1,1,1,1,1,100.000000
2025-03-27 15:14:23.883,0.4527962803808632,-0.2148997811044331,-0.01266082603833834,0.5982698388509394,0.5301182505060548,-0.1250065279764223,-0.3545110095016469,0.3194286970305655,1.212489865468464,0.5619396916241601,0.3003241077364088,1.346628760059899,0.5137375894370768,0.3970454126015002,0.4369140880279135,0.5962239126731793,0.3601381400770495,0.3760991157252018,0.1207270574925766,0.3086548546195785,828.4249084249085,813.5164835164835,804.6520146520147,811.9047619047619,728.0952380952381,1002.490842490843,-0.231995,-0.013184,0.957275,0.598145,-0.852356,0.456085,1,1,1,1,1,100.000000
2025-03-27 15:14:23.883,0.4527962803808632,-0.2148997811044331,-0.01266082603833834,0.5982698388509394,0.5301182505060548,-0.1250065279764223,-0.3545110095016469,0.3194286970305655,1.212489865468464,0.5619396916241601,0.3003241077364088,1.346628760059899,0.5137375894370768,0.3970454126015002,0.4369140880279135,0.5962239126731793,0.3601381400770495,0.3760991157252018,0.1207270574925766,0.3086548546195785,852.1978021978023,801.8315018315019,803.4432234432235,812.3076923076924,716.4102564102565,725.6776556776557,-0.231995,-0.013184,0.957275,0.598145,-0.852356,0.456085,1,1,1,1,1,100.000000
2025-03-27 15:14:23.883,0.4527962803808632,-0.2148997811044331,-0.01266082603833834,0.5982698388509394,0.5301182505060548,-0.1250065279764223,-0.3545110095016469,0.3194286970305655,1.212489865468464,0.5619396916241601,0.3003241077364088,1.346628760059899,0.5137375894370768,0.3970454126015002,0.4369140880279135,0.5962239126731793,0.3601381400770495,0.3760991157252018,0.1207270574925766,0.3086548546195785,787.7289377289378,793.3699633699634,799.4139194139194,802.2344322344322,766.3736263736264,682.1611721611722,-0.231995,-0.013184,0.957275,0.598145,-0.852356,0.456085,1,1,1,1,1,100.000000
2025-03-27 15:14:23.883,0.4527962803808632,-0.2148997811044331,-0.01266082603833834,0.5982698388509394,0.5301182505060548,-0.1250065279764223,-0.3545110095016469,0.3194286970305655,1.212489865468464,0.5619396916241601,0.3003241077364088,1.346628760059899,0.5137375894370768,0.3970454126015002,0.4369140880279135,0.5962239126731793,0.3601381400770495,0.3760991157252018,0.1207270574925766,0.3086548546195785,741.7948717948718,795.3846153846154,798.2051282051282,792.967032967033,804.6520146520147,892.893772893773,-0.231995,-0.013184,0.957275,0.598145,-0.852356,0.456085,1,1,1,1,1,100.000000
2025-03-27 15:14:23.884,0.4527962803808632,-0.2148997811044331,-0.01266082603833834,0.5982698388509394,0.5301182505060548,-0.1250065279764223,-0.3545110095016469,0.3194286970305655,1.212489865468464,0.5619396916241601,0.3003241077364088,1.346628760059899,0.5137375894370768,0.3970454126015002,0.4369140880279135,0.5962239126731793,0.3601381400770495,0.3760991157252018,0.1207270574925766,0.3086548546195785,812.3076923076924,807.8754578754579,806.2637362637363,805.4578754578755,832.4542124542124,699.8901098901099,-0.231995,-0.013184,0.957275,0.598145,-0.852356,0.456085,1,1,1,1,1,100.000000
2025-03-27 15:14:23.884,0.4527962803808632,-0.2148997811044331,-0.01266082603833834,0.5982698388509394,0.5301182505060548,-0.1250065279764223,-0.3545110095016469,0.3194286970305655,1.212489865468464,0.5619396916241601,0.3003241077364088,1.346628760059899,0.5137375894370768,0.3970454126015002,0.4369140880279135,0.5962239126731793,0.3601381400770495,0.3760991157252018,0.1207270574925766,0.3086548546195785,868.3150183150184,811.0989010989011,813.5164835164835,814.7252747252747,839.7069597069598,647.1062271062272,-0.231995,-0.013184,0.957275,0.598145,-0.852356,0.456085,1,1,1,1,1,100.000000
2025-03-27 15:14:23.884,0.4527962803808632,-0.2148997811044331,-0.01266082603833834,0.5982698388509394,0.5301182505060548,-0.1250065279764223,-0.3545110095016469,0.3194286970305655,1.212489865468464,0.5619396916241601,0.3003241077364088,1.346628760059899,0.5137375894370768,0.3970454126015002,0.4369140880279135,0.5962239126731793,0.3601381400770495,0.3760991157252018,0.1207270574925766,0.3086548546195785,811.5018315018315,798.2051282051282,803.040293040293,790.952380952381,811.5018315018315,705.5311355311355,-0.230957,-0.009949,0.964417,0.598145,-1.846771,-0.000000,1,1,1,1,1,100.000000
2025-03-27 15:14:23.884,0.4527962803808632,-0.2148997811044331,-0.01266082603833834,0.5982698388509394,0.5301182505060548,-0.1250065279764223,-0.3545110095016469,0.3194286970305655,1.212489865468464,0.5619396916241601,0.3003241077364088,1.346628760059899,0.5137375894370768,0.3970454126015002,0.4369140880279135,0.5962239126731793,0.3601381400770495,0.3760991157252018,0.1207270574925766,0.3086548546195785,735.7509157509157,801.025641025641,798.6080586080586,776.8498168498169,820.7692307692308,655.5677655677656,-0.230957,-0.009949,0.964417,0.598145,-1.846771,-0.000000,1,1,1,1,1,100.000000
2025-03-27 15:14:23.885,0.4527962803808632,-0.2148997811044331,-0.01266082603833834,0.5982698388509394,0.5301182505060548,-0.1250065279764223,-0.3545110095016469,0.3194286970305655,1.212489865468464,0.5619396916241601,0.3003241077364088,1.346628760059899,0.5137375894370768,0.3970454126015002,0.4369140880279135,0.5962239126731793,0.3601381400770495,0.3760991157252018,0.1207270574925766,0.3086548546195785,778.4615384615385,817.5457875457876,801.4285714285714,782.4908424908425,822.7838827838829,865.0915750915751,-0.230957,-0.009949,0.964417,0.598145,-1.846771,-0.000000,1,1,1,1,1,100.000000
2025-03-27 15:14:23.885,0.4527962803808632,-0.2148997811044331,-0.01266082603833834,0.5982698388509394,0.5301182505060548,-0.1250065279764223,-0.3545110095016469,0.3194286970305655,1.212489865468464,0.5619396916241601,0.3003241077364088,1.346628760059899,0.5137375894370768,0.3970454126015002,0.4369140880279135,0.5962239126731793,0.3601381400770495,0.3760991157252018,0.1207270574925766,0.3086548546195785,853.8095238095239,818.3516483516484,801.8315018315019,788.9377289377289,781.6849816849817,909.0109890109891,-0.230957,-0.009949,0.964417,0.598145,-1.846771,-0.000000,1,1,1,1,1,100.000000
2025-03-27 15:14:23.885,0.4527962803808632,-0.2148997811044331,-0.01266082603833834,0.5982698388509394,0.5301182505060548,-0.1250065279764223,-0.3545110095016469,0.3194286970305655,1.212489865468464,0.5619396916241601,0.3003241077364088,1.346628760059899,0.5137375894370768,0.3970454126015002,0.4369140880279135,0.5962239126731793,0.3601381400770495,0.3760991157252018,0.1207270574925766,0.3086548546195785,830.8424908424909,807.8754578754579,800.6227106227107,789.7435897435897,833.6630036630037,748.2417582417582,-0.230957,-0.009949,0.964417,0.598145,-1.846771,-0.000000,1,1,1,1,1,100.000000
2025-03-27 15:14:23.885,0.4527962803808632,-0.2148997811044331,-0.01266082603833834,0.5982698388509394,0.5301182505060548,-0.1250065279764223,-0.3545110095016469,0.3194286970305655,1.212489865468464,0.5619396916241601,0.3003241077364088,1.346628760059899,0.5137375894370768,0.3970454126015002,0.4369140880279135,0.5962239126731793,0.3601381400770495,0.3760991157252018,0.1207270574925766,0.3086548546195785,753.0769230769231,814.7252747252747,801.8315018315019,782.893772893773,856.6300366300367,1041.978021978022,-0.230957,-0.009949,0.964417,0.598145,-1.846771,-0.000000,1,1,1,1,1,100.000000
2025-03-27 15:14:23.886,0.4527962803808632,-0.2148997811044331,-0.01266082603833834,0.5982698388509394,0.5301182505060548,-0.1250065279764223,-0.3545110095016469,0.3194286970305655,1.212489865468464,0.5619396916241601,0.3003241077364088,1.346628760059899,0.5137375894370768,0.3970454126015002,0.4369140880279135,0.5962239126731793,0.3601381400770495,0.3760991157252018,0.1207270574925766,0.3086548546195785,774.8351648351648,816.7399267399268,805.4578754578755,791.7582417582418,867.9120879120879,1165.677655677656,-0.230957,-0.009949,0.964417,0.598145,-1.846771,-0.000000,1,1,1,1,1,100.000000
2025-03-27 15:14:23.886,0.4527962803808632,-0.2148997811044331,-0.01266082603833834,0.5982698388509394,0.5301182505060548,-0.1250065279764223,-0.3545110095016469,0.3194286970305655,1.212489865468464,0.5619396916241601,0.3003241077364088,1.346628760059899,0.5137375894370768,0.3970454126015002,0.4369140880279135,0.5962239126731793,0.3601381400770495,0.3760991157252018,0.1207270574925766,0.3086548546195785,856.2271062271062,794.5787545787546,803.8461538461539,811.5018315018315,894.5054945054945,885.6410256410256,-0.230957,-0.009949,0.964417,0.598145,-1.846771,-0.000000,1,1,1,1,1,100.000000
2025-03-27 15:14:23.886,0.4527962803808632,-0.2148997811044331,-0.01266082603833834,0.5982698388509394,0.5301182505060548,-0.1250065279764223,-0.3545110095016469,0.3194286970305655,1.212489865468464,0.5619396916241601,0.3003241077364088,1.346628760059899,0.5137375894370768,0.3970454126015002,0.4369140880279135,0.5962239126731793,0.3601381400770495,0.3760991157252018,0.1207270574925766,0.3086548546195785,850.989010989011,790.952380952381,804.6520146520147,813.5164835164835,867.9120879120879,715.2014652014652,-0.230957,-0.009949,0.964417,0.598145,-1.846771,-0.000000,1,1,1,1,1,100.000000
2025-03-27 15:14:23.886,0.4737798671228661,-0.2408694634282539,-0.06419245217021172,0.6181850898690651,0.5986671803426572,-0.1045000050139673,-0.4816859454582963,0.37437905633515,1.260027481742465,0.5666461396765916,0.2957317965194083,1.34663265741359,0.5036487081080291,0.3740677708639014,0.4196322724361164,0.6041091185142982,0.3405679577619489,0.3676507475708826,0.09458747357340061,0.2999626469742294,762.3443223443223,804.2490842490843,803.4432234432235,793.3699633699634,799.0109890109891,657.1794871794872,-0.230957,-0.009949,0.964417,0.598145,-1.846771,-0.000000,1,1,1,1,1,100.000000
2025-03-27 15:14:23.887,0.4737798671228661,-0.2408694634282539,-0.06419245217021172,0.6181850898690651,0.5986671803426572,-0.1045000050139673,-0.4816859454582963,0.37437905633515,1.260027481742465,0.5666461396765916,0.2957317965194083,1.34663265741359,0.5036487081080291,0.3740677708639014,0.4196322724361164,0.6041091185142982,0.3405679577619489,0.3676507475708826,0.09458747357340061,0.2999626469742294,744.6153846153846,795.3846153846154,800.6227106227107,796.5934065934066,803.4432234432235,677.3260073260074,-0.230957,-0.009949,0.964417,0.598145,-1.846771,-0.000000,1,1,1,1,1,100.000000
2025-03-27 15:14:23.887,0.4737798671228661,-0.2408694634282539,-0.06419245217021172,0.6181850898690651,0.5986671803426572,-0.1045000050139673,-0.4816859454582963,0.37437905633515,1.260027481742465,0.5666461396765916,0.2957317965194083,1.34663265741359,0.5036487081080291,0.3740677708639014,0.4196322724361164,0.6041091185142982,0.3405679577619489,0.3676507475708826,0.09458747357340061,0.2999626469742294,840.9157509157509,799.8168498168499,819.1575091575091,826.007326007326,781.6849816849817,671.2820512820513,-0.230957,-0.009949,0.964417,0.598145,-1.846771,-0.000000,1,1,1,1,1,100.000000
2025-03-27 15:14:23.888,0.4737798671228661,-0.2408694634282539,-0.06419245217021172,0.6181850898690651,0.5986671803426572,-0.1045000050139673,-0.4816859454582963,0.37437905633515,1.260027481742465,0.5666461396765916,0.2957317965194083,1.34663265741359,0.5036487081080291,0.3740677708639014,0.4196322724361164,0.6041091185142982,0.3405679577619489,0.3676507475708826,0.09458747357340061,0.2999626469742294,882.014652014652,816.7399267399268,831.6483516483516,837.6923076923077,745.0183150183151,824.3956043956044,-0.230835,-0.016296,0.967102,0.358887,-1.629944,-0.044861,1,1,1,1,1,100.000000
2025-03-27 15:14:23.888,0.4737798671228661,-0.2408694634282539,-0.06419245217021172,0.6181850898690651,0.5986671803426572,-0.1045000050139673,-0.4816859454582963,0.37437905633515,1.260027481742465,0.5666461396765916,0.2957317965194083,1.34663265741359,0.5036487081080291,0.3740677708639014,0.4196322724361164,0.6041091185142982,0.3405679577619489,0.3676507475708826,0.09458747357340061,0.2999626469742294,805.0549450549451,801.4285714285714,820.7692307692308,817.948717948718,859.4505494505495,877.5824175824176,-0.230835,-0.016296,0.967102,0.358887,-1.629944,-0.044861,1,1,1,1,1,100.000000
2025-03-27 15:14:23.889,0.4737798671228661,-0.2408694634282539,-0.06419245217021172,0.6181850898690651,0.5986671803426572,-0.1045000050139673,-0.4816859454582963,0.37437905633515,1.260027481742465,0.5666461396765916,0.2957317965194083,1.34663265741359,0.5036487081080291,0.3740677708639014,0.4196322724361164,0.6041091185142982,0.3405679577619489,0.3676507475708826,0.09458747357340061,0.2999626469742294,747.4358974358975,801.4285714285714,818.3516483516484,807.0695970695971,893.2967032967033,710.3663003663004,-0.230835,-0.016296,0.967102,0.358887,-1.629944,-0.044861,1,1,1,1,1,100.000000
2025-03-27 15:14:23.889,0.4737798671228661,-0.2408694634282539,-0.06419245217021172,0.6181850898690651,0.5986671803426572,-0.1045000050139673,-0.4816859454582963,0.37437905633515,1.260027481742465,0.5666461396765916,0.2957317965194083,1.34663265741359,0.5036487081080291,0.3740677708639014,0.4196322724361164,0.6041091185142982,0.3405679577619489,0.3676507475708826,0.09458747357340061,0.2999626469742294,813.1135531135532,815.1282051282052,821.1721611721612,821.978021978022,870.3296703296703,726.8864468864469,-0.230835,-0.016296,0.967102,0.358887,-1.629944,-0.044861,1,1,1,1,1,100.000000
2025-03-27 15:14:23.889,0.4737798671228661,-0.2408694634282539,-0.06419245217021172,0.6181850898690651,0.5986671803426572,-0.1045000050139673,-0.4816859454582963,0.37437905633515,1.260027481742465,0.5666461396765916,0.2957317965194083,1.34663265741359,0.5036487081080291,0.3740677708639014,0.4196322724361164,0.6041091185142982,0.3405679577619489,0.3676507475708826,0.09458747357340061,0.2999626469742294,878.7912087912089,815.5311355311355,821.1721611721612,832.0512820512821,906.5934065934066,838.4981684981685,-0.230835,-0.016296,0.967102,0.358887,-1.629944,-0.044861,1,1,1,1,1,100.000000
2025-03-27 15:14:23.889,0.4737798671228661,-0.2408694634282539,-0.06419245217021172,0.6181850898690651,0.5986671803426572,-0.1045000050139673,-0.4816859454582963,0.37437905633515,1.260027481742465,0.5666461396765916,0.2957317965194083,1.34663265741359,0.5036487081080291,0.3740677708639014,0.4196322724361164,0.6041091185142982,0.3405679577619489,0.3676507475708826,0.09458747357340061,0.2999626469742294,844.1391941391942,811.0989010989011,823.5897435897436,832.8571428571429,838.4981684981685,957.7655677655678,-0.230835,-0.016296,0.967102,0.358887,-1.629944,-0.044861,1,1,1,1,1,100.000000
2025-03-27 15:14:23.890,0.4737798671228661,-0.2408694634282539,-0.06419245217021172,0.6181850898690651,0.5986671803426572,-0.1045000050139673,-0.4816859454582963,0.37437905633515,1.260027481742465,0.5666461396765916,0.2957317965194083,1.34663265741359,0.5036487081080291,0.3740677708639014,0.4196322724361164,0.6041091185142982,0.3405679577619489,0.3676507475708826,0.09458747357340061,0.2999626469742294,761.941391941392,793.3699633699634,812.7106227106227,823.5897435897436,774.8351648351648,881.2087912087912,-0.230835,-0.016296,0.967102,0.358887,-1.629944,-0.044861,1,1,1,1,1,100.000000
2025-03-27 15:14:23.890,0.4737798671228661,-0.2408694634282539,-0.06419245217021172,0.6181850898690651,0.5986671803426572,-0.1045000050139673,-0.4816859454582963,0.37437905633515,1.260027481742465,0.5666461396765916,0.2957317965194083,1.34663265741359,0.5036487081080291,0.3740677708639014,0.4196322724361164,0.6041091185142982,0.3405679577619489,0.3676507475708826,0.09458747357340061,0.2999626469742294,790.952380952381,786.9230769230769,811.5018315018315,822.7838827838829,766.3736263736264,814.7252747252747,-0.230835,-0.016296,0.967102,0.358887,-1.629944,-0.044861,1,1,1,1,1,100.000000
2025-03-27 15:14:23.890,0.4737798671228661,-0.2408694634282539,-0.06419245217021172,0.6181850898690651,0.5986671803426572,-0.1045000050139673,-0.4816859454582963,0.37437905633515,1.260027481742465,0.5666461396765916,0.2957317965194083,1.34663265741359,0.5036487081080291,0.3740677708639014,0.4196322724361164,0.6041091185142982,0.3405679577619489,0.3676507475708826,0.09458747357340061,0.2999626469742294,863.4798534798535,799.8168498168499,818.7545787545788,826.007326007326,793.3699633699634,709.1575091575091,-0.230835,-0.016296,0.967102,0.358887,-1.629944,-0.044861,1,1,1,1,1,100.000000
2025-03-27 15:14:23.890,0.4737798671228661,-0.2408694634282539,-0.06419245217021172,0.6181850898690651,0.5986671803426572,-0.1045000050139673,-0.4816859454582963,0.37437905633515,1.260027481742465,0.5666461396765916,0.2957317965194083,1.34663265741359,0.5036487081080291,0.3740677708639014,0.4196322724361164,0.6041091185142982,0.3405679577619489,0.3676507475708826,0.09458747357340061,0.2999626469742294,855.0183150183151,818.3516483516484,815.1282051282052,823.992673992674,828.021978021978,680.5494505494506,-0.230835,-0.016296,0.967102,0.358887,-1.629944,-0.044861,1,1,1,1,1,100.000000
