TimeStamp,Delta_TP9,Delta_AF7,Delta_AF8,Delta_TP10,Theta_TP9,Theta_AF7,Theta_AF8,Theta_TP10,Alpha_TP9,Alpha_AF7,Alpha_AF8,Alpha_TP10,Beta_TP9,Beta_AF7,Beta_AF8,Beta_TP10,Gamma_TP9,Gamma_AF7,Gamma_AF8,Gamma_TP10,RAW_TP9,RAW_AF7,RAW_AF8,RAW_TP10,AUX_RIGHT,AUX_LEFT,Accelerometer_X,Accelerometer_Y,Accelerometer_Z,Gyro_X,Gyro_Y,Gyro_Z,HeadBandOn,HSI_TP9,HSI_AF7,HSI_AF8,HSI_TP10,Battery,Elements
2025-03-26 11:25:07.298,,,,,,,,,,,,,,,,,,,,,,,,,,,,,,,,,,,,,,,/muse/event/connected MuseS-9CF6
2025-03-26 11:25:07.406,0.6881438864553459,-0.09403733749236791,-0.1482633668615003,0.6869857486098832,0.3938691105960891,-0.2000298234782822,-0.4549470153818734,0.4115769419739337,0.5590465124668507,-0.05993374026217024,-0.176469091848432,0.6021753649847793,0.3972621634454125,-0.2344827899033877,-0.2309067064688202,0.5533445607135729,-0.04341318754220011,-0.2699920261580994,-0.5508716477205239,0.2392915827220358,805.0549450549451,800.2197802197802,800.2197802197802,799.4139194139194,827.6190476190476,866.7032967032967,-0.394592,0.056763,0.911255,0.059814,-1.891632,-0.448608,1,1,1,1,1,100.000000
2025-03-26 11:25:07.406,0.6881438864553459,-0.09403733749236791,-0.1482633668615003,0.6869857486098832,0.3938691105960891,-0.2000298234782822,-0.4549470153818734,0.4115769419739337,0.5590465124668507,-0.05993374026217024,-0.176469091848432,0.6021753649847793,0.3972621634454125,-0.2344827899033877,-0.2309067064688202,0.5533445607135729,-0.04341318754220011,-0.2699920261580994,-0.5508716477205239,0.2392915827220358,808.6813186813187,803.8461538461539,796.5934065934066,806.2637362637363,868.7179487179487,678.1318681318681,-0.394592,0.056763,0.911255,0.059814,-1.891632,-0.448608,1,1,1,1,1,100.000000
2025-03-26 11:25:07.406,0.6881438864553459,-0.09403733749236791,-0.1482633668615003,0.6869857486098832,0.3938691105960891,-0.2000298234782822,-0.4549470153818734,0.4115769419739337,0.5590465124668507,-0.05993374026217024,-0.176469091848432,0.6021753649847793,0.3972621634454125,-0.2344827899033877,-0.2309067064688202,0.5533445607135729,-0.04341318754220011,-0.2699920261580994,-0.5508716477205239,0.2392915827220358,796.996336996337,804.2490842490843,796.1904761904763,799.4139194139194,895.3113553113553,792.5641025641025,-0.394592,0.056763,0.911255,0.059814,-1.891632,-0.448608,1,1,1,1,1,100.000000
2025-03-26 11:25:07.407,0.6881438864553459,-0.09403733749236791,-0.1482633668615003,0.6869857486098832,0.3938691105960891,-0.2000298234782822,-0.4549470153818734,0.4115769419739337,0.5590465124668507,-0.05993374026217024,-0.176469091848432,0.6021753649847793,0.3972621634454125,-0.2344827899033877,-0.2309067064688202,0.5533445607135729,-0.04341318754220011,-0.2699920261580994,-0.5508716477205239,0.2392915827220358,800.6227106227107,804.2490842490843,797.3992673992674,803.8461538461539,930.7692307692308,830.0366300366301,-0.394592,0.056763,0.911255,0.059814,-1.891632,-0.448608,1,1,1,1,1,100.000000
2025-03-26 11:25:07.407,0.6881438864553459,-0.09403733749236791,-0.1482633668615003,0.6869857486098832,0.3938691105960891,-0.2000298234782822,-0.4549470153818734,0.4115769419739337,0.5590465124668507,-0.05993374026217024,-0.176469091848432,0.6021753649847793,0.3972621634454125,-0.2344827899033877,-0.2309067064688202,0.5533445607135729,-0.04341318754220011,-0.2699920261580994,-0.5508716477205239,0.2392915827220358,804.6520146520147,805.0549450549451,796.996336996337,810.2930402930403,961.7948717948718,923.5164835164835,-0.394592,0.056763,0.911255,0.059814,-1.891632,-0.448608,1,1,1,1,1,100.000000
2025-03-26 11:25:07.407,0.7044096897036818,-0.109311071078559,-0.07723418849793375,0.7196755102827835,0.3937049296902461,-0.2143960160497178,-0.4092255860960727,0.3926956149672032,0.5105905649806111,-0.06251109173718082,-0.1540333252014886,0.6021753649847793,0.4108519991846433,-0.2313846375413496,-0.2134997693692897,0.5278058279031467,-0.04903063956645074,-0.2850990085677409,-0.5405167402065468,0.2001578694849408,799.8168498168499,807.0695970695971,798.2051282051282,801.4285714285714,929.1575091575091,1155.604395604396,-0.394592,0.056763,0.911255,0.059814,-1.891632,-0.448608,1,1,1,1,1,100.000000
2025-03-26 11:25:07.408,0.7044096897036818,-0.109311071078559,-0.07723418849793375,0.7196755102827835,0.3937049296902461,-0.2143960160497178,-0.4092255860960727,0.3926956149672032,0.5105905649806111,-0.06251109173718082,-0.1540333252014886,0.6021753649847793,0.4108519991846433,-0.2313846375413496,-0.2134997693692897,0.5278058279031467,-0.04903063956645074,-0.2850990085677409,-0.5405167402065468,0.2001578694849408,800.6227106227107,803.8461538461539,797.8021978021978,795.7875457875458,843.7362637362637,1158.424908424908,-0.394592,0.056763,0.911255,0.059814,-1.891632,-0.448608,1,1,1,1,1,100.000000
2025-03-26 11:25:07.408,0.7044096897036818,-0.109311071078559,-0.07723418849793375,0.7196755102827835,0.3937049296902461,-0.2143960160497178,-0.4092255860960727,0.3926956149672032,0.5105905649806111,-0.06251109173718082,-0.1540333252014886,0.6021753649847793,0.4108519991846433,-0.2313846375413496,-0.2134997693692897,0.5278058279031467,-0.04903063956645074,-0.2850990085677409,-0.5405167402065468,0.2001578694849408,800.6227106227107,801.8315018315019,798.2051282051282,793.7728937728938,781.6849816849817,837.2893772893773,-0.394592,0.056763,0.911255,0.059814,-1.891632,-0.448608,1,1,1,1,1,100.000000
2025-03-26 11:25:07.409,0.7044096897036818,-0.109311071078559,-0.07723418849793375,0.7196755102827835,0.3937049296902461,-0.2143960160497178,-0.4092255860960727,0.3926956149672032,0.5105905649806111,-0.06251109173718082,-0.1540333252014886,0.6021753649847793,0.4108519991846433,-0.2313846375413496,-0.2134997693692897,0.5278058279031467,-0.04903063956645074,-0.2850990085677409,-0.5405167402065468,0.2001578694849408,799.8168498168499,803.8461538461539,797.3992673992674,798.6080586080586,829.6336996336996,699.0842490842491,-0.394592,0.056763,0.911255,0.059814,-1.891632,-0.448608,1,1,1,1,1,100.000000
2025-03-26 11:25:07.409,0.7044096897036818,-0.109311071078559,-0.07723418849793375,0.7196755102827835,0.3937049296902461,-0.2143960160497178,-0.4092255860960727,0.3926956149672032,0.5105905649806111,-0.06251109173718082,-0.1540333252014886,0.6021753649847793,0.4108519991846433,-0.2313846375413496,-0.2134997693692897,0.5278058279031467,-0.04903063956645074,-0.2850990085677409,-0.5405167402065468,0.2001578694849408,796.996336996337,802.6373626373627,792.5641025641025,800.2197802197802,836.0805860805862,717.2161172161173,-0.394592,0.056763,0.911255,0.059814,-1.891632,-0.448608,1,1,1,1,1,100.000000
2025-03-26 11:25:07.409,0.7044096897036818,-0.109311071078559,-0.07723418849793375,0.7196755102827835,0.3937049296902461,-0.2143960160497178,-0.4092255860960727,0.3926956149672032,0.5105905649806111,-0.06251109173718082,-0.1540333252014886,0.6021753649847793,0.4108519991846433,-0.2313846375413496,-0.2134997693692897,0.5278058279031467,-0.04903063956645074,-0.2850990085677409,-0.5405167402065468,0.2001578694849408,788.9377289377289,798.2051282051282,791.3553113553114,789.3406593406594,822.7838827838829,680.952380952381,-0.394592,0.056763,0.911255,0.059814,-1.891632,-0.448608,1,1,1,1,1,100.000000
2025-03-26 11:25:07.409,0.7044096897036818,-0.109311071078559,-0.07723418849793375,0.7196755102827835,0.3937049296902461,-0.2143960160497178,-0.4092255860960727,0.3926956149672032,0.5105905649806111,-0.06251109173718082,-0.1540333252014886,0.6021753649847793,0.4108519991846433,-0.2313846375413496,-0.2134997693692897,0.5278058279031467,-0.04903063956645074,-0.2850990085677409,-0.5405167402065468,0.2001578694849408,792.5641025641025,796.996336996337,794.1758241758242,792.967032967033,837.6923076923077,737.3626373626374,-0.394592,0.056763,0.911255,0.059814,-1.891632,-0.448608,1,1,1,1,1,100.000000
2025-03-26 11:25:07.410,0.7044096897036818,-0.109311071078559,-0.07723418849793375,0.7196755102827835,0.3937049296902461,-0.2143960160497178,-0.4092255860960727,0.3926956149672032,0.5105905649806111,-0.06251109173718082,-0.1540333252014886,0.6021753649847793,0.4108519991846433,-0.2313846375413496,-0.2134997693692897,0.5278058279031467,-0.04903063956645074,-0.2850990085677409,-0.5405167402065468,0.2001578694849408,796.1904761904763,798.2051282051282,796.1904761904763,802.2344322344322,834.0659340659341,660.8058608058608,-0.394592,0.056763,0.911255,0.059814,-1.891632,-0.448608,1,1,1,1,1,100.000000
2025-03-26 11:25:07.410,0.7044096897036818,-0.109311071078559,-0.07723418849793375,0.7196755102827835,0.3937049296902461,-0.2143960160497178,-0.4092255860960727,0.3926956149672032,0.5105905649806111,-0.06251109173718082,-0.1540333252014886,0.6021753649847793,0.4108519991846433,-0.2313846375413496,-0.2134997693692897,0.5278058279031467,-0.04903063956645074,-0.2850990085677409,-0.5405167402065468,0.2001578694849408,799.0109890109891,798.2051282051282,796.1904761904763,802.2344322344322,858.6446886446887,666.0439560439561,-0.394592,0.056763,0.911255,0.059814,-1.891632,-0.448608,1,1,1,1,1,100.000000
2025-03-26 11:25:07.411,0.7044096897036818,-0.109311071078559,-0.07723418849793375,0.7196755102827835,0.3937049296902461,-0.2143960160497178,-0.4092255860960727,0.3926956149672032,0.5105905649806111,-0.06251109173718082,-0.1540333252014886,0.6021753649847793,0.4108519991846433,-0.2313846375413496,-0.2134997693692897,0.5278058279031467,-0.04903063956645074,-0.2850990085677409,-0.5405167402065468,0.2001578694849408,798.6080586080586,801.8315018315019,796.1904761904763,799.0109890109891,910.6227106227107,853.0036630036631,-0.394592,0.056763,0.911255,0.059814,-1.891632,-0.448608,1,1,1,1,1,100.000000
2025-03-26 11:25:07.411,0.7044096897036818,-0.109311071078559,-0.07723418849793375,0.7196755102827835,0.3937049296902461,-0.2143960160497178,-0.4092255860960727,0.3926956149672032,0.5105905649806111,-0.06251109173718082,-0.1540333252014886,0.6021753649847793,0.4108519991846433,-0.2313846375413496,-0.2134997693692897,0.5278058279031467,-0.04903063956645074,-0.2850990085677409,-0.5405167402065468,0.2001578694849408,795.7875457875458,800.2197802197802,796.5934065934066,792.5641025641025,877.1794871794872,963.4065934065934,-0.394592,0.056763,0.911255,0.059814,-1.891632,-0.448608,1,1,1,1,1,100.000000
2025-03-26 11:25:07.411,0.7044096897036818,-0.109311071078559,-0.07723418849793375,0.7196755102827835,0.3937049296902461,-0.2143960160497178,-0.4092255860960727,0.3926956149672032,0.5105905649806111,-0.06251109173718082,-0.1540333252014886,0.6021753649847793,0.4108519991846433,-0.2313846375413496,-0.2134997693692897,0.5278058279031467,-0.04903063956645074,-0.2850990085677409,-0.5405167402065468,0.2001578694849408,798.6080586080586,795.3846153846154,796.5934065934066,792.967032967033,804.2490842490843,767.985347985348,-0.394592,0.056763,0.911255,0.059814,-1.891632,-0.448608,1,1,1,1,1,100.000000
2025-03-26 11:25:07.411,0.7044096897036818,-0.109311071078559,-0.07723418849793375,0.7196755102827835,0.3937049296902461,-0.2143960160497178,-0.4092255860960727,0.3926956149672032,0.5105905649806111,-0.06251109173718082,-0.1540333252014886,0.6021753649847793,0.4108519991846433,-0.2313846375413496,-0.2134997693692897,0.5278058279031467,-0.04903063956645074,-0.2850990085677409,-0.5405167402065468,0.2001578694849408,799.8168498168499,801.4285714285714,796.5934065934066,799.0109890109891,806.6666666666667,893.2967032967033,-0.394592,0.056763,0.911255,0.059814,-1.891632,-0.448608,1,1,1,1,1,100.000000
2025-03-26 11:25:07.412,0.7044096897036818,-0.109311071078559,-0.07723418849793375,0.7196755102827835,0.3937049296902461,-0.2143960160497178,-0.4092255860960727,0.3926956149672032,0.5105905649806111,-0.06251109173718082,-0.1540333252014886,0.6021753649847793,0.4108519991846433,-0.2313846375413496,-0.2134997693692897,0.5278058279031467,-0.04903063956645074,-0.2850990085677409,-0.5405167402065468,0.2001578694849408,800.2197802197802,806.6666666666667,797.8021978021978,800.2197802197802,807.4725274725275,1099.59706959707,-0.394592,0.056763,0.911255,0.059814,-1.891632,-0.448608,1,1,1,1,1,100.000000
2025-03-26 11:25:07.412,0.7044096897036818,-0.109311071078559,-0.07723418849793375,0.7196755102827835,0.3937049296902461,-0.2143960160497178,-0.4092255860960727,0.3926956149672032,0.5105905649806111,-0.06251109173718082,-0.1540333252014886,0.6021753649847793,0.4108519991846433,-0.2313846375413496,-0.2134997693692897,0.5278058279031467,-0.04903063956645074,-0.2850990085677409,-0.5405167402065468,0.2001578694849408,797.3992673992674,803.8461538461539,796.5934065934066,796.996336996337,778.8644688644689,1125.384615384615,-0.394592,0.056763,0.911255,0.059814,-1.891632,-0.448608,1,1,1,1,1,100.000000
2025-03-26 11:25:07.412,0.7044096897036818,-0.109311071078559,-0.07723418849793375,0.7196755102827835,0.3937049296902461,-0.2143960160497178,-0.4092255860960727,0.3926956149672032,0.5105905649806111,-0.06251109173718082,-0.1540333252014886,0.6021753649847793,0.4108519991846433,-0.2313846375413496,-0.2134997693692897,0.5278058279031467,-0.04903063956645074,-0.2850990085677409,-0.5405167402065468,0.2001578694849408,799.8168498168499,801.4285714285714,796.996336996337,800.6227106227107,763.1501831501831,782.0879120879121,-0.394592,0.056763,0.911255,0.059814,-1.891632,-0.448608,1,1,1,1,1,100.000000
2025-03-26 11:25:07.412,0.7044096897036818,-0.109311071078559,-0.07723418849793375,0.7196755102827835,0.3937049296902461,-0.2143960160497178,-0.4092255860960727,0.3926956149672032,0.5105905649806111,-0.06251109173718082,-0.1540333252014886,0.6021753649847793,0.4108519991846433,-0.2313846375413496,-0.2134997693692897,0.5278058279031467,-0.04903063956645074,-0.2850990085677409,-0.5405167402065468,0.2001578694849408,799.8168498168499,800.6227106227107,797.8021978021978,799.0109890109891,785.3113553113553,568.9377289377289,-0.394592,0.056763,0.911255,0.059814,-1.891632,-0.448608,1,1,1,1,1,100.000000
2025-03-26 11:25:07.413,0.7044096897036818,-0.109311071078559,-0.07723418849793375,0.7196755102827835,0.3937049296902461,-0.2143960160497178,-0.4092255860960727,0.3926956149672032,0.5105905649806111,-0.06251109173718082,-0.1540333252014886,0.6021753649847793,0.4108519991846433,-0.2313846375413496,-0.2134997693692897,0.5278058279031467,-0.04903063956645074,-0.2850990085677409,-0.5405167402065468,0.2001578694849408,803.040293040293,802.6373626373627,799.0109890109891,800.6227106227107,796.1904761904763,776.8498168498169,-0.394592,0.056763,0.911255,0.059814,-1.891632,-0.448608,1,1,1,1,1,100.000000
2025-03-26 11:25:07.413,0.7044096897036818,-0.109311071078559,-0.07723418849793375,0.7196755102827835,0.3937049296902461,-0.2143960160497178,-0.4092255860960727,0.3926956149672032,0.5105905649806111,-0.06251109173718082,-0.1540333252014886,0.6021753649847793,0.4108519991846433,-0.2313846375413496,-0.2134997693692897,0.5278058279031467,-0.04903063956645074,-0.2850990085677409,-0.5405167402065468,0.2001578694849408,807.0695970695971,805.8608058608058,803.8461538461539,804.6520146520147,780.8791208791209,663.2234432234433,-0.394592,0.056763,0.911255,0.059814,-1.891632,-0.448608,1,1,1,1,1,100.000000
2025-03-26 11:25:07.414,0.7044096897036818,-0.109311071078559,-0.07723418849793375,0.7196755102827835,0.3937049296902461,-0.2143960160497178,-0.4092255860960727,0.3926956149672032,0.5105905649806111,-0.06251109173718082,-0.1540333252014886,0.6021753649847793,0.4108519991846433,-0.2313846375413496,-0.2134997693692897,0.5278058279031467,-0.04903063956645074,-0.2850990085677409,-0.5405167402065468,0.2001578694849408,808.6813186813187,805.4578754578755,804.2490842490843,804.2490842490843,788.5347985347986,551.6117216117216,-0.394104,0.049683,0.908325,0.112152,-1.128998,-0.710297,1,1,1,1,1,100.000000
2025-03-26 11:25:07.414,0.7044096897036818,-0.109311071078559,-0.07723418849793375,0.7196755102827835,0.3937049296902461,-0.2143960160497178,-0.4092255860960727,0.3926956149672032,0.5105905649806111,-0.06251109173718082,-0.1540333252014886,0.6021753649847793,0.4108519991846433,-0.2313846375413496,-0.2134997693692897,0.5278058279031467,-0.04903063956645074,-0.2850990085677409,-0.5405167402065468,0.2001578694849408,814.3223443223443,803.8461538461539,803.4432234432235,811.9047619047619,810.6959706959707,602.7838827838827,-0.394104,0.049683,0.908325,0.112152,-1.128998,-0.710297,1,1,1,1,1,100.000000
2025-03-26 11:25:07.414,0.7044096897036818,-0.109311071078559,-0.07723418849793375,0.7196755102827835,0.3937049296902461,-0.2143960160497178,-0.4092255860960727,0.3926956149672032,0.5105905649806111,-0.06251109173718082,-0.1540333252014886,0.6021753649847793,0.4108519991846433,-0.2313846375413496,-0.2134997693692897,0.5278058279031467,-0.04903063956645074,-0.2850990085677409,-0.5405167402065468,0.2001578694849408,812.7106227106227,806.2637362637363,805.4578754578755,811.9047619047619,822.7838827838829,737.7655677655678,-0.394104,0.049683,0.908325,0.112152,-1.128998,-0.710297,1,1,1,1,1,100.000000
2025-03-26 11:25:07.415,0.7044096897036818,-0.109311071078559,-0.07723418849793375,0.7196755102827835,0.3937049296902461,-0.2143960160497178,-0.4092255860960727,0.3926956149672032,0.5105905649806111,-0.06251109173718082,-0.1540333252014886,0.6021753649847793,0.4108519991846433,-0.2313846375413496,-0.2134997693692897,0.5278058279031467,-0.04903063956645074,-0.2850990085677409,-0.5405167402065468,0.2001578694849408,807.4725274725275,807.8754578754579,803.8461538461539,802.6373626373627,831.6483516483516,747.032967032967,-0.394104,0.049683,0.908325,0.112152,-1.128998,-0.710297,1,1,1,1,1,100.000000
2025-03-26 11:25:07.415,0.7044096897036818,-0.109311071078559,-0.07723418849793375,0.7196755102827835,0.3937049296902461,-0.2143960160497178,-0.4092255860960727,0.3926956149672032,0.5105905649806111,-0.06251109173718082,-0.1540333252014886,0.6021753649847793,0.4108519991846433,-0.2313846375413496,-0.2134997693692897,0.5278058279031467,-0.04903063956645074,-0.2850990085677409,-0.5405167402065468,0.2001578694849408,801.4285714285714,807.0695970695971,803.040293040293,801.025641025641,847.7655677655678,687.8021978021978,-0.394104,0.049683,0.908325,0.112152,-1.128998,-0.710297,1,1,1,1,1,100.000000
2025-03-26 11:25:07.415,0.7044096897036818,-0.109311071078559,-0.07723418849793375,0.7196755102827835,0.3937049296902461,-0.2143960160497178,-0.4092255860960727,0.3926956149672032,0.5105905649806111,-0.06251109173718082,-0.1540333252014886,0.6021753649847793,0.4108519991846433,-0.2313846375413496,-0.2134997693692897,0.5278058279031467,-0.04903063956645074,-0.2850990085677409,-0.5405167402065468,0.2001578694849408,802.6373626373627,805.0549450549451,803.8461538461539,805.4578754578755,859.4505494505495,938.4249084249085,-0.394104,0.049683,0.908325,0.112152,-1.128998,-0.710297,1,1,1,1,1,100.000000
2025-03-26 11:25:07.415,0.7044096897036818,-0.109311071078559,-0.07723418849793375,0.7196755102827835,0.3937049296902461,-0.2143960160497178,-0.4092255860960727,0.3926956149672032,0.5105905649806111,-0.06251109173718082,-0.1540333252014886,0.6021753649847793,0.4108519991846433,-0.2313846375413496,-0.2134997693692897,0.5278058279031467,-0.04903063956645074,-0.2850990085677409,-0.5405167402065468,0.2001578694849408,804.2490842490843,805.4578754578755,805.0549450549451,805.8608058608058,809.4871794871796,1123.369963369963,-0.394104,0.049683,0.908325,0.112152,-1.128998,-0.710297,1,1,1,1,1,100.000000
2025-03-26 11:25:07.416,0.7236516485584341,-0.107738174349599,-0.005687478315151424,0.7547963702470354,0.3948711496771501,-0.219588195578377,-0.3836223551776186,0.370282304130581,0.5007861257319531,-0.04556992194237276,-0.1429057944608108,0.6021753649847793,0.4292957310857306,-0.2220061919223477,-0.1864494576346466,0.4990472537451794,-0.04762804297312461,-0.3018823918745002,-0.5280270742753896,0.1582617337699053,799.0109890109891,803.8461538461539,805.0549450549451,803.8461538461539,828.4249084249085,1125.384615384615,-0.394104,0.049683,0.908325,0.112152,-1.128998,-0.710297,1,1,1,1,1,100.000000
2025-03-26 11:25:07.416,0.7236516485584341,-0.107738174349599,-0.005687478315151424,0.7547963702470354,0.3948711496771501,-0.219588195578377,-0.3836223551776186,0.370282304130581,0.5007861257319531,-0.04556992194237276,-0.1429057944608108,0.6021753649847793,0.4292957310857306,-0.2220061919223477,-0.1864494576346466,0.4990472537451794,-0.04762804297312461,-0.3018823918745002,-0.5280270742753896,0.1582617337699053,794.981684981685,800.2197802197802,801.8315018315019,801.4285714285714,824.3956043956044,743.4065934065934,-0.394104,0.049683,0.908325,0.112152,-1.128998,-0.710297,1,1,1,1,1,100.000000
2025-03-26 11:25:07.417,0.7236516485584341,-0.107738174349599,-0.005687478315151424,0.7547963702470354,0.3948711496771501,-0.219588195578377,-0.3836223551776186,0.370282304130581,0.5007861257319531,-0.04556992194237276,-0.1429057944608108,0.6021753649847793,0.4292957310857306,-0.2220061919223477,-0.1864494576346466,0.4990472537451794,-0.04762804297312461,-0.3018823918745002,-0.5280270742753896,0.1582617337699053,799.4139194139194,804.6520146520147,805.0549450549451,809.4871794871796,788.9377289377289,489.5604395604396,-0.394104,0.049683,0.908325,0.112152,-1.128998,-0.710297,1,1,1,1,1,100.000000
2025-03-26 11:25:07.417,0.7236516485584341,-0.107738174349599,-0.005687478315151424,0.7547963702470354,0.3948711496771501,-0.219588195578377,-0.3836223551776186,0.370282304130581,0.5007861257319531,-0.04556992194237276,-0.1429057944608108,0.6021753649847793,0.4292957310857306,-0.2220061919223477,-0.1864494576346466,0.4990472537451794,-0.04762804297312461,-0.3018823918745002,-0.5280270742753896,0.1582617337699053,801.8315018315019,805.4578754578755,803.8461538461539,806.2637362637363,873.5531135531136,745.0183150183151,-0.394104,0.049683,0.908325,0.112152,-1.128998,-0.710297,1,1,1,1,1,100.000000
2025-03-26 11:25:07.417,0.7236516485584341,-0.107738174349599,-0.005687478315151424,0.7547963702470354,0.3948711496771501,-0.219588195578377,-0.3836223551776186,0.370282304130581,0.5007861257319531,-0.04556992194237276,-0.1429057944608108,0.6021753649847793,0.4292957310857306,-0.2220061919223477,-0.1864494576346466,0.4990472537451794,-0.04762804297312461,-0.3018823918745002,-0.5280270742753896,0.1582617337699053,806.2637362637363,807.4725274725275,808.6813186813187,801.8315018315019,855.0183150183151,748.2417582417582,-0.394104,0.049683,0.908325,0.112152,-1.128998,-0.710297,1,1,1,1,1,100.000000
2025-03-26 11:25:07.417,0.7236516485584341,-0.107738174349599,-0.005687478315151424,0.7547963702470354,0.3948711496771501,-0.219588195578377,-0.3836223551776186,0.370282304130581,0.5007861257319531,-0.04556992194237276,-0.1429057944608108,0.6021753649847793,0.4292957310857306,-0.2220061919223477,-0.1864494576346466,0.4990472537451794,-0.04762804297312461,-0.3018823918745002,-0.5280270742753896,0.1582617337699053,804.2490842490843,810.2930402930403,807.4725274725275,801.4285714285714,844.1391941391942,649.92673992674,-0.391479,0.049438,0.909119,0.755157,-1.555176,-0.059814,1,1,1,1,1,100.000000
2025-03-26 11:25:07.418,0.7236516485584341,-0.107738174349599,-0.005687478315151424,0.7547963702470354,0.3948711496771501,-0.219588195578377,-0.3836223551776186,0.370282304130581,0.5007861257319531,-0.04556992194237276,-0.1429057944608108,0.6021753649847793,0.4292957310857306,-0.2220061919223477,-0.1864494576346466,0.4990472537451794,-0.04762804297312461,-0.3018823918745002,-0.5280270742753896,0.1582617337699053,801.025641025641,805.0549450549451,799.8168498168499,801.8315018315019,847.3626373626374,654.3589743589744,-0.391479,0.049438,0.909119,0.755157,-1.555176,-0.059814,1,1,1,1,1,100.000000
2025-03-26 11:25:07.418,0.7236516485584341,-0.107738174349599,-0.005687478315151424,0.7547963702470354,0.3948711496771501,-0.219588195578377,-0.3836223551776186,0.370282304130581,0.5007861257319531,-0.04556992194237276,-0.1429057944608108,0.6021753649847793,0.4292957310857306,-0.2220061919223477,-0.1864494576346466,0.4990472537451794,-0.04762804297312461,-0.3018823918745002,-0.5280270742753896,0.1582617337699053,804.6520146520147,805.4578754578755,801.025641025641,808.2783882783883,844.1391941391942,753.4798534798535,-0.391479,0.049438,0.909119,0.755157,-1.555176,-0.059814,1,1,1,1,1,100.000000
2025-03-26 11:25:07.418,0.7236516485584341,-0.107738174349599,-0.005687478315151424,0.7547963702470354,0.3948711496771501,-0.219588195578377,-0.3836223551776186,0.370282304130581,0.5007861257319531,-0.04556992194237276,-0.1429057944608108,0.6021753649847793,0.4292957310857306,-0.2220061919223477,-0.1864494576346466,0.4990472537451794,-0.04762804297312461,-0.3018823918745002,-0.5280270742753896,0.1582617337699053,801.4285714285714,804.2490842490843,798.6080586080586,806.6666666666667,858.6446886446887,773.6263736263736,-0.391479,0.049438,0.909119,0.755157,-1.555176,-0.059814,1,1,1,1,1,100.000000
2025-03-26 11:25:07.418,0.7236516485584341,-0.107738174349599,-0.005687478315151424,0.7547963702470354,0.3948711496771501,-0.219588195578377,-0.3836223551776186,0.370282304130581,0.5007861257319531,-0.04556992194237276,-0.1429057944608108,0.6021753649847793,0.4292957310857306,-0.2220061919223477,-0.1864494576346466,0.4990472537451794,-0.04762804297312461,-0.3018823918745002,-0.5280270742753896,0.1582617337699053,801.025641025641,801.8315018315019,799.4139194139194,800.2197802197802,801.8315018315019,720.0366300366301,-0.391479,0.049438,0.909119,0.755157,-1.555176,-0.059814,1,1,1,1,1,100.000000
2025-03-26 11:25:07.419,0.7236516485584341,-0.107738174349599,-0.005687478315151424,0.7547963702470354,0.3948711496771501,-0.219588195578377,-0.3836223551776186,0.370282304130581,0.5007861257319531,-0.04556992194237276,-0.1429057944608108,0.6021753649847793,0.4292957310857306,-0.2220061919223477,-0.1864494576346466,0.4990472537451794,-0.04762804297312461,-0.3018823918745002,-0.5280270742753896,0.1582617337699053,799.4139194139194,806.2637362637363,801.4285714285714,804.6520146520147,779.6703296703297,946.0805860805862,-0.391479,0.049438,0.909119,0.755157,-1.555176,-0.059814,1,1,1,1,1,100.000000
2025-03-26 11:25:07.419,0.7236516485584341,-0.107738174349599,-0.005687478315151424,0.7547963702470354,0.3948711496771501,-0.219588195578377,-0.3836223551776186,0.370282304130581,0.5007861257319531,-0.04556992194237276,-0.1429057944608108,0.6021753649847793,0.4292957310857306,-0.2220061919223477,-0.1864494576346466,0.4990472537451794,-0.04762804297312461,-0.3018823918745002,-0.5280270742753896,0.1582617337699053,799.8168498168499,805.4578754578755,799.8168498168499,809.0842490842491,799.0109890109891,1149.157509157509,-0.391479,0.049438,0.909119,0.755157,-1.555176,-0.059814,1,1,1,1,1,100.000000
2025-03-26 11:25:07.419,0.7236516485584341,-0.107738174349599,-0.005687478315151424,0.7547963702470354,0.3948711496771501,-0.219588195578377,-0.3836223551776186,0.370282304130581,0.5007861257319531,-0.04556992194237276,-0.1429057944608108,0.6021753649847793,0.4292957310857306,-0.2220061919223477,-0.1864494576346466,0.4990472537451794,-0.04762804297312461,-0.3018823918745002,-0.5280270742753896,0.1582617337699053,797.3992673992674,803.4432234432235,801.4285714285714,807.4725274725275,855.4212454212454,1299.85347985348,-0.391479,0.049438,0.909119,0.755157,-1.555176,-0.059814,1,1,1,1,1,100.000000
2025-03-26 11:25:07.419,0.7236516485584341,-0.107738174349599,-0.005687478315151424,0.7547963702470354,0.3948711496771501,-0.219588195578377,-0.3836223551776186,0.370282304130581,0.5007861257319531,-0.04556992194237276,-0.1429057944608108,0.6021753649847793,0.4292957310857306,-0.2220061919223477,-0.1864494576346466,0.4990472537451794,-0.04762804297312461,-0.3018823918745002,-0.5280270742753896,0.1582617337699053,791.3553113553114,801.4285714285714,801.8315018315019,803.040293040293,956.1538461538462,1009.340659340659,-0.391479,0.049438,0.909119,0.755157,-1.555176,-0.059814,1,1,1,1,1,100.000000
2025-03-26 11:25:07.420,0.7236516485584341,-0.107738174349599,-0.005687478315151424,0.7547963702470354,0.3948711496771501,-0.219588195578377,-0.3836223551776186,0.370282304130581,0.5007861257319531,-0.04556992194237276,-0.1429057944608108,0.6021753649847793,0.4292957310857306,-0.2220061919223477,-0.1864494576346466,0.4990472537451794,-0.04762804297312461,-0.3018823918745002,-0.5280270742753896,0.1582617337699053,788.9377289377289,799.0109890109891,801.4285714285714,794.5787545787546,980.7326007326008,710.7692307692308,-0.391479,0.049438,0.909119,0.755157,-1.555176,-0.059814,1,1,1,1,1,100.000000
2025-03-26 11:25:07.420,0.7236516485584341,-0.107738174349599,-0.005687478315151424,0.7547963702470354,0.3948711496771501,-0.219588195578377,-0.3836223551776186,0.370282304130581,0.5007861257319531,-0.04556992194237276,-0.1429057944608108,0.6021753649847793,0.4292957310857306,-0.2220061919223477,-0.1864494576346466,0.4990472537451794,-0.04762804297312461,-0.3018823918745002,-0.5280270742753896,0.1582617337699053,786.9230769230769,799.8168498168499,801.4285714285714,796.1904761904763,932.7838827838829,953.3333333333334,-0.391479,0.049438,0.909119,0.755157,-1.555176,-0.059814,1,1,1,1,1,100.000000
2025-03-26 11:25:07.420,0.7236516485584341,-0.107738174349599,-0.005687478315151424,0.7547963702470354,0.3948711496771501,-0.219588195578377,-0.3836223551776186,0.370282304130581,0.5007861257319531,-0.04556992194237276,-0.1429057944608108,0.6021753649847793,0.4292957310857306,-0.2220061919223477,-0.1864494576346466,0.4990472537451794,-0.04762804297312461,-0.3018823918745002,-0.5280270742753896,0.1582617337699053,789.3406593406594,799.8168498168499,799.8168498168499,799.4139194139194,907.3992673992674,861.0622710622711,-0.391479,0.049438,0.909119,0.755157,-1.555176,-0.059814,1,1,1,1,1,100.000000
2025-03-26 11:25:07.421,0.7236516485584341,-0.107738174349599,-0.005687478315151424,0.7547963702470354,0.3948711496771501,-0.219588195578377,-0.3836223551776186,0.370282304130581,0.5007861257319531,-0.04556992194237276,-0.1429057944608108,0.6021753649847793,0.4292957310857306,-0.2220061919223477,-0.1864494576346466,0.4990472537451794,-0.04762804297312461,-0.3018823918745002,-0.5280270742753896,0.1582617337699053,793.3699633699634,800.6227106227107,799.0109890109891,794.1758241758242,912.6373626373627,658.7912087912088,-0.394531,0.056519,0.914795,0.269165,-0.919647,0.201874,1,1,1,1,1,100.000000
2025-03-26 11:25:07.421,0.7236516485584341,-0.107738174349599,-0.005687478315151424,0.7547963702470354,0.3948711496771501,-0.219588195578377,-0.3836223551776186,0.370282304130581,0.5007861257319531,-0.04556992194237276,-0.1429057944608108,0.6021753649847793,0.4292957310857306,-0.2220061919223477,-0.1864494576346466,0.4990472537451794,-0.04762804297312461,-0.3018823918745002,-0.5280270742753896,0.1582617337699053,792.1611721611722,803.4432234432235,801.025641025641,790.1465201465202,915.4578754578755,694.2490842490843,-0.394531,0.056519,0.914795,0.269165,-0.919647,0.201874,1,1,1,1,1,100.000000
2025-03-26 11:25:07.421,0.7236516485584341,-0.107738174349599,-0.005687478315151424,0.7547963702470354,0.3948711496771501,-0.219588195578377,-0.3836223551776186,0.370282304130581,0.5007861257319531,-0.04556992194237276,-0.1429057944608108,0.6021753649847793,0.4292957310857306,-0.2220061919223477,-0.1864494576346466,0.4990472537451794,-0.04762804297312461,-0.3018823918745002,-0.5280270742753896,0.1582617337699053,792.5641025641025,804.2490842490843,801.8315018315019,796.5934065934066,886.8498168498169,772.4175824175825,-0.394531,0.056519,0.914795,0.269165,-0.919647,0.201874,1,1,1,1,1,100.000000
2025-03-26 11:25:07.422,0.7236516485584341,-0.107738174349599,-0.005687478315151424,0.7547963702470354,0.3948711496771501,-0.219588195578377,-0.3836223551776186,0.370282304130581,0.5007861257319531,-0.04556992194237276,-0.1429057944608108,0.6021753649847793,0.4292957310857306,-0.2220061919223477,-0.1864494576346466,0.4990472537451794,-0.04762804297312461,-0.3018823918745002,-0.5280270742753896,0.1582617337699053,789.7435897435897,801.025641025641,800.2197802197802,798.6080586080586,881.6117216117217,771.2087912087912,-0.394531,0.056519,0.914795,0.269165,-0.919647,0.201874,1,1,1,1,1,100.000000
2025-03-26 11:25:07.422,0.7236516485584341,-0.107738174349599,-0.005687478315151424,0.7547963702470354,0.3948711496771501,-0.219588195578377,-0.3836223551776186,0.370282304130581,0.5007861257319531,-0.04556992194237276,-0.1429057944608108,0.6021753649847793,0.4292957310857306,-0.2220061919223477,-0.1864494576346466,0.4990472537451794,-0.04762804297312461,-0.3018823918745002,-0.5280270742753896,0.1582617337699053,788.1318681318681,795.3846153846154,799.8168498168499,791.3553113553114,803.8461538461539,591.5018315018315,-0.394531,0.056519,0.914795,0.269165,-0.919647,0.201874,1,1,1,1,1,100.000000
2025-03-26 11:25:07.422,0.7236516485584341,-0.107738174349599,-0.005687478315151424,0.7547963702470354,0.3948711496771501,-0.219588195578377,-0.3836223551776186,0.370282304130581,0.5007861257319531,-0.04556992194237276,-0.1429057944608108,0.6021753649847793,0.4292957310857306,-0.2220061919223477,-0.1864494576346466,0.4990472537451794,-0.04762804297312461,-0.3018823918745002,-0.5280270742753896,0.1582617337699053,791.7582417582418,804.6520146520147,804.2490842490843,795.3846153846154,817.1428571428571,882.014652014652,-0.394531,0.056519,0.914795,0.269165,-0.919647,0.201874,1,1,1,1,1,100.000000
2025-03-26 11:25:07.422,0.7236516485584341,-0.107738174349599,-0.005687478315151424,0.7547963702470354,0.3948711496771501,-0.219588195578377,-0.3836223551776186,0.370282304130581,0.5007861257319531,-0.04556992194237276,-0.1429057944608108,0.6021753649847793,0.4292957310857306,-0.2220061919223477,-0.1864494576346466,0.4990472537451794,-0.04762804297312461,-0.3018823918745002,-0.5280270742753896,0.1582617337699053,797.8021978021978,809.4871794871796,806.2637362637363,804.2490842490843,899.3406593406594,1243.846153846154,-0.394531,0.056519,0.914795,0.269165,-0.919647,0.201874,1,1,1,1,1,100.000000
2025-03-26 11:25:07.423,0.7236516485584341,-0.107738174349599,-0.005687478315151424,0.7547963702470354,0.3948711496771501,-0.219588195578377,-0.3836223551776186,0.370282304130581,0.5007861257319531,-0.04556992194237276,-0.1429057944608108,0.6021753649847793,0.4292957310857306,-0.2220061919223477,-0.1864494576346466,0.4990472537451794,-0.04762804297312461,-0.3018823918745002,-0.5280270742753896,0.1582617337699053,795.7875457875458,800.2197802197802,802.6373626373627,800.6227106227107,905.7875457875458,939.2307692307693,-0.394531,0.056519,0.914795,0.269165,-0.919647,0.201874,1,1,1,1,1,100.000000
2025-03-26 11:25:07.423,0.7236516485584341,-0.107738174349599,-0.005687478315151424,0.7547963702470354,0.3948711496771501,-0.219588195578377,-0.3836223551776186,0.370282304130581,0.5007861257319531,-0.04556992194237276,-0.1429057944608108,0.6021753649847793,0.4292957310857306,-0.2220061919223477,-0.1864494576346466,0.4990472537451794,-0.04762804297312461,-0.3018823918745002,-0.5280270742753896,0.1582617337699053,797.3992673992674,802.2344322344322,800.6227106227107,796.5934065934066,889.2673992673992,641.4652014652015,-0.394531,0.056519,0.914795,0.269165,-0.919647,0.201874,1,1,1,1,1,100.000000
2025-03-26 11:25:07.423,0.7460015830183884,-0.1047124240089389,0.05959895432851598,0.7946159526927293,0.4008668432811057,-0.2227623641943297,-0.3743236755607566,0.3540535013463386,0.4987105418113856,-0.001321308071354579,-0.1389789037852546,0.6013658444253782,0.4479497293325024,-0.2106043663062465,-0.1553428539372614,0.469016351213341,-0.04084353156415915,-0.3164202001635694,-0.5212796034861502,0.1115065684667243,800.6227106227107,804.6520146520147,800.2197802197802,791.3553113553114,801.4285714285714,601.1721611721612,-0.394531,0.056519,0.914795,0.269165,-0.919647,0.201874,1,1,1,1,1,100.000000
2025-03-26 11:25:07.424,0.7460015830183884,-0.1047124240089389,0.05959895432851598,0.7946159526927293,0.4008668432811057,-0.2227623641943297,-0.3743236755607566,0.3540535013463386,0.4987105418113856,-0.001321308071354579,-0.1389789037852546,0.6013658444253782,0.4479497293325024,-0.2106043663062465,-0.1553428539372614,0.469016351213341,-0.04084353156415915,-0.3164202001635694,-0.5212796034861502,0.1115065684667243,795.7875457875458,799.0109890109891,799.4139194139194,793.3699633699634,725.2747252747253,627.7655677655678,-0.394531,0.056519,0.914795,0.269165,-0.919647,0.201874,1,1,1,1,1,100.000000
2025-03-26 11:25:07.424,0.7460015830183884,-0.1047124240089389,0.05959895432851598,0.7946159526927293,0.4008668432811057,-0.2227623641943297,-0.3743236755607566,0.3540535013463386,0.4987105418113856,-0.001321308071354579,-0.1389789037852546,0.6013658444253782,0.4479497293325024,-0.2106043663062465,-0.1553428539372614,0.469016351213341,-0.04084353156415915,-0.3164202001635694,-0.5212796034861502,0.1115065684667243,796.996336996337,798.2051282051282,794.981684981685,799.8168498168499,734.5421245421246,635.8241758241759,-0.394531,0.056519,0.914795,0.269165,-0.919647,0.201874,1,1,1,1,1,100.000000
2025-03-26 11:25:07.425,0.7460015830183884,-0.1047124240089389,0.05959895432851598,0.7946159526927293,0.4008668432811057,-0.2227623641943297,-0.3743236755607566,0.3540535013463386,0.4987105418113856,-0.001321308071354579,-0.1389789037852546,0.6013658444253782,0.4479497293325024,-0.2106043663062465,-0.1553428539372614,0.469016351213341,-0.04084353156415915,-0.3164202001635694,-0.5212796034861502,0.1115065684667243,802.2344322344322,803.8461538461539,795.3846153846154,800.2197802197802,786.9230769230769,660.8058608058608,-0.395264,0.054810,0.909485,0.687866,-0.343933,0.157013,1,1,1,1,1,100.000000
2025-03-26 11:25:07.425,0.7460015830183884,-0.1047124240089389,0.05959895432851598,0.7946159526927293,0.4008668432811057,-0.2227623641943297,-0.3743236755607566,0.3540535013463386,0.4987105418113856,-0.001321308071354579,-0.1389789037852546,0.6013658444253782,0.4479497293325024,-0.2106043663062465,-0.1553428539372614,0.469016351213341,-0.04084353156415915,-0.3164202001635694,-0.5212796034861502,0.1115065684667243,807.0695970695971,806.6666666666667,802.6373626373627,808.2783882783883,830.4395604395604,880.8058608058608,-0.395264,0.054810,0.909485,0.687866,-0.343933,0.157013,1,1,1,1,1,100.000000
2025-03-26 11:25:07.425,0.7460015830183884,-0.1047124240089389,0.05959895432851598,0.7946159526927293,0.4008668432811057,-0.2227623641943297,-0.3743236755607566,0.3540535013463386,0.4987105418113856,-0.001321308071354579,-0.1389789037852546,0.6013658444253782,0.4479497293325024,-0.2106043663062465,-0.1553428539372614,0.469016351213341,-0.04084353156415915,-0.3164202001635694,-0.5212796034861502,0.1115065684667243,807.4725274725275,800.6227106227107,803.4432234432235,807.4725274725275,817.948717948718,915.0549450549451,-0.395264,0.054810,0.909485,0.687866,-0.343933,0.157013,1,1,1,1,1,100.000000
2025-03-26 11:25:07.426,0.7460015830183884,-0.1047124240089389,0.05959895432851598,0.7946159526927293,0.4008668432811057,-0.2227623641943297,-0.3743236755607566,0.3540535013463386,0.4987105418113856,-0.001321308071354579,-0.1389789037852546,0.6013658444253782,0.4479497293325024,-0.2106043663062465,-0.1553428539372614,0.469016351213341,-0.04084353156415915,-0.3164202001635694,-0.5212796034861502,0.1115065684667243,806.6666666666667,799.0109890109891,802.6373626373627,802.6373626373627,811.5018315018315,703.5164835164835,-0.395264,0.054810,0.909485,0.687866,-0.343933,0.157013,1,1,1,1,1,100.000000
2025-03-26 11:25:07.426,0.7460015830183884,-0.1047124240089389,0.05959895432851598,0.7946159526927293,0.4008668432811057,-0.2227623641943297,-0.3743236755607566,0.3540535013463386,0.4987105418113856,-0.001321308071354579,-0.1389789037852546,0.6013658444253782,0.4479497293325024,-0.2106043663062465,-0.1553428539372614,0.469016351213341,-0.04084353156415915,-0.3164202001635694,-0.5212796034861502,0.1115065684667243,807.4725274725275,807.4725274725275,803.4432234432235,803.4432234432235,814.3223443223443,619.3040293040293,-0.395264,0.054810,0.909485,0.687866,-0.343933,0.157013,1,1,1,1,1,100.000000
2025-03-26 11:25:07.426,0.7460015830183884,-0.1047124240089389,0.05959895432851598,0.7946159526927293,0.4008668432811057,-0.2227623641943297,-0.3743236755607566,0.3540535013463386,0.4987105418113856,-0.001321308071354579,-0.1389789037852546,0.6013658444253782,0.4479497293325024,-0.2106043663062465,-0.1553428539372614,0.469016351213341,-0.04084353156415915,-0.3164202001635694,-0.5212796034861502,0.1115065684667243,804.6520146520147,810.2930402930403,804.2490842490843,801.025641025641,813.1135531135532,913.8461538461539,-0.395264,0.054810,0.909485,0.687866,-0.343933,0.157013,1,1,1,1,1,100.000000
2025-03-26 11:25:07.426,0.7460015830183884,-0.1047124240089389,0.05959895432851598,0.7946159526927293,0.4008668432811057,-0.2227623641943297,-0.3743236755607566,0.3540535013463386,0.4987105418113856,-0.001321308071354579,-0.1389789037852546,0.6013658444253782,0.4479497293325024,-0.2106043663062465,-0.1553428539372614,0.469016351213341,-0.04084353156415915,-0.3164202001635694,-0.5212796034861502,0.1115065684667243,792.5641025641025,805.0549450549451,806.6666666666667,793.3699633699634,843.7362637362637,1196.703296703297,-0.395264,0.054810,0.909485,0.687866,-0.343933,0.157013,1,1,1,1,1,100.000000
2025-03-26 11:25:07.427,0.7460015830183884,-0.1047124240089389,0.05959895432851598,0.7946159526927293,0.4008668432811057,-0.2227623641943297,-0.3743236755607566,0.3540535013463386,0.4987105418113856,-0.001321308071354579,-0.1389789037852546,0.6013658444253782,0.4479497293325024,-0.2106043663062465,-0.1553428539372614,0.469016351213341,-0.04084353156415915,-0.3164202001635694,-0.5212796034861502,0.1115065684667243,790.1465201465202,803.040293040293,800.2197802197802,792.5641025641025,853.0036630036631,1160.43956043956,-0.395264,0.054810,0.909485,0.687866,-0.343933,0.157013,1,1,1,1,1,100.000000
2025-03-26 11:25:07.427,0.7460015830183884,-0.1047124240089389,0.05959895432851598,0.7946159526927293,0.4008668432811057,-0.2227623641943297,-0.3743236755607566,0.3540535013463386,0.4987105418113856,-0.001321308071354579,-0.1389789037852546,0.6013658444253782,0.4479497293325024,-0.2106043663062465,-0.1553428539372614,0.469016351213341,-0.04084353156415915,-0.3164202001635694,-0.5212796034861502,0.1115065684667243,799.4139194139194,804.6520146520147,800.2197802197802,800.6227106227107,855.8241758241759,934.7985347985348,-0.395264,0.054810,0.909485,0.687866,-0.343933,0.157013,1,1,1,1,1,100.000000
2025-03-26 11:25:07.427,0.7460015830183884,-0.1047124240089389,0.05959895432851598,0.7946159526927293,0.4008668432811057,-0.2227623641943297,-0.3743236755607566,0.3540535013463386,0.4987105418113856,-0.001321308071354579,-0.1389789037852546,0.6013658444253782,0.4479497293325024,-0.2106043663062465,-0.1553428539372614,0.469016351213341,-0.04084353156415915,-0.3164202001635694,-0.5212796034861502,0.1115065684667243,798.6080586080586,801.025641025641,805.4578754578755,802.2344322344322,857.4358974358975,671.6849816849817,-0.395264,0.054810,0.909485,0.687866,-0.343933,0.157013,1,1,1,1,1,100.000000
2025-03-26 11:25:07.427,0.7460015830183884,-0.1047124240089389,0.05959895432851598,0.7946159526927293,0.4008668432811057,-0.2227623641943297,-0.3743236755607566,0.3540535013463386,0.4987105418113856,-0.001321308071354579,-0.1389789037852546,0.6013658444253782,0.4479497293325024,-0.2106043663062465,-0.1553428539372614,0.469016351213341,-0.04084353156415915,-0.3164202001635694,-0.5212796034861502,0.1115065684667243,788.9377289377289,797.8021978021978,805.0549450549451,802.2344322344322,834.8717948717949,705.1282051282052,-0.395264,0.054810,0.909485,0.687866,-0.343933,0.157013,1,1,1,1,1,100.000000
2025-03-26 11:25:07.428,0.7460015830183884,-0.1047124240089389,0.05959895432851598,0.7946159526927293,0.4008668432811057,-0.2227623641943297,-0.3743236755607566,0.3540535013463386,0.4987105418113856,-0.001321308071354579,-0.1389789037852546,0.6013658444253782,0.4479497293325024,-0.2106043663062465,-0.1553428539372614,0.469016351213341,-0.04084353156415915,-0.3164202001635694,-0.5212796034861502,0.1115065684667243,794.5787545787546,797.3992673992674,811.5018315018315,809.0842490842491,834.0659340659341,720.0366300366301,-0.395264,0.054810,0.909485,0.687866,-0.343933,0.157013,1,1,1,1,1,100.000000
2025-03-26 11:25:07.428,0.7460015830183884,-0.1047124240089389,0.05959895432851598,0.7946159526927293,0.4008668432811057,-0.2227623641943297,-0.3743236755607566,0.3540535013463386,0.4987105418113856,-0.001321308071354579,-0.1389789037852546,0.6013658444253782,0.4479497293325024,-0.2106043663062465,-0.1553428539372614,0.469016351213341,-0.04084353156415915,-0.3164202001635694,-0.5212796034861502,0.1115065684667243,798.6080586080586,795.7875457875458,818.7545787545788,811.0989010989011,858.6446886446887,764.3589743589744,-0.395264,0.054810,0.909485,0.687866,-0.343933,0.157013,1,1,1,1,1,100.000000
2025-03-26 11:25:07.428,0.7460015830183884,-0.1047124240089389,0.05959895432851598,0.7946159526927293,0.4008668432811057,-0.2227623641943297,-0.3743236755607566,0.3540535013463386,0.4987105418113856,-0.001321308071354579,-0.1389789037852546,0.6013658444253782,0.4479497293325024,-0.2106043663062465,-0.1553428539372614,0.469016351213341,-0.04084353156415915,-0.3164202001635694,-0.5212796034861502,0.1115065684667243,800.6227106227107,790.952380952381,815.934065934066,808.2783882783883,888.4615384615385,805.8608058608058,-0.395264,0.054810,0.909485,0.687866,-0.343933,0.157013,1,1,1,1,1,100.000000
2025-03-26 11:25:07.429,0.7460015830183884,-0.1047124240089389,0.05959895432851598,0.7946159526927293,0.4008668432811057,-0.2227623641943297,-0.3743236755607566,0.3540535013463386,0.4987105418113856,-0.001321308071354579,-0.1389789037852546,0.6013658444253782,0.4479497293325024,-0.2106043663062465,-0.1553428539372614,0.469016351213341,-0.04084353156415915,-0.3164202001635694,-0.5212796034861502,0.1115065684667243,801.025641025641,790.1465201465202,810.6959706959707,803.8461538461539,912.2344322344322,790.5494505494506,-0.395264,0.054810,0.909485,0.687866,-0.343933,0.157013,1,1,1,1,1,100.000000
2025-03-26 11:25:07.429,0.7460015830183884,-0.1047124240089389,0.05959895432851598,0.7946159526927293,0.4008668432811057,-0.2227623641943297,-0.3743236755607566,0.3540535013463386,0.4987105418113856,-0.001321308071354579,-0.1389789037852546,0.6013658444253782,0.4479497293325024,-0.2106043663062465,-0.1553428539372614,0.469016351213341,-0.04084353156415915,-0.3164202001635694,-0.5212796034861502,0.1115065684667243,800.6227106227107,792.967032967033,807.4725274725275,799.8168498168499,945.6776556776557,894.1025641025641,-0.395264,0.054810,0.909485,0.687866,-0.343933,0.157013,1,1,1,1,1,100.000000
2025-03-26 11:25:07.429,0.7460015830183884,-0.1047124240089389,0.05959895432851598,0.7946159526927293,0.4008668432811057,-0.2227623641943297,-0.3743236755607566,0.3540535013463386,0.4987105418113856,-0.001321308071354579,-0.1389789037852546,0.6013658444253782,0.4479497293325024,-0.2106043663062465,-0.1553428539372614,0.469016351213341,-0.04084353156415915,-0.3164202001635694,-0.5212796034861502,0.1115065684667243,814.3223443223443,794.1758241758242,808.6813186813187,809.0842490842491,903.3699633699634,846.959706959707,-0.395264,0.054810,0.909485,0.687866,-0.343933,0.157013,1,1,1,1,1,100.000000
2025-03-26 11:25:07.429,0.7460015830183884,-0.1047124240089389,0.05959895432851598,0.7946159526927293,0.4008668432811057,-0.2227623641943297,-0.3743236755607566,0.3540535013463386,0.4987105418113856,-0.001321308071354579,-0.1389789037852546,0.6013658444253782,0.4479497293325024,-0.2106043663062465,-0.1553428539372614,0.469016351213341,-0.04084353156415915,-0.3164202001635694,-0.5212796034861502,0.1115065684667243,817.5457875457876,792.1611721611722,812.3076923076924,811.9047619047619,838.0952380952381,918.2783882783883,-0.395264,0.054810,0.909485,0.687866,-0.343933,0.157013,1,1,1,1,1,100.000000
2025-03-26 11:25:07.430,0.7460015830183884,-0.1047124240089389,0.05959895432851598,0.7946159526927293,0.4008668432811057,-0.2227623641943297,-0.3743236755607566,0.3540535013463386,0.4987105418113856,-0.001321308071354579,-0.1389789037852546,0.6013658444253782,0.4479497293325024,-0.2106043663062465,-0.1553428539372614,0.469016351213341,-0.04084353156415915,-0.3164202001635694,-0.5212796034861502,0.1115065684667243,805.8608058608058,792.967032967033,808.6813186813187,804.2490842490843,836.8864468864469,1313.553113553114,-0.395264,0.054810,0.909485,0.687866,-0.343933,0.157013,1,1,1,1,1,100.000000
2025-03-26 11:25:07.430,0.7460015830183884,-0.1047124240089389,0.05959895432851598,0.7946159526927293,0.4008668432811057,-0.2227623641943297,-0.3743236755607566,0.3540535013463386,0.4987105418113856,-0.001321308071354579,-0.1389789037852546,0.6013658444253782,0.4479497293325024,-0.2106043663062465,-0.1553428539372614,0.469016351213341,-0.04084353156415915,-0.3164202001635694,-0.5212796034861502,0.1115065684667243,806.2637362637363,795.7875457875458,808.2783882783883,805.8608058608058,847.3626373626374,1087.912087912088,-0.395264,0.054810,0.909485,0.687866,-0.343933,0.157013,1,1,1,1,1,100.000000
2025-03-26 11:25:07.430,0.7460015830183884,-0.1047124240089389,0.05959895432851598,0.7946159526927293,0.4008668432811057,-0.2227623641943297,-0.3743236755607566,0.3540535013463386,0.4987105418113856,-0.001321308071354579,-0.1389789037852546,0.6013658444253782,0.4479497293325024,-0.2106043663062465,-0.1553428539372614,0.469016351213341,-0.04084353156415915,-0.3164202001635694,-0.5212796034861502,0.1115065684667243,810.6959706959707,797.8021978021978,812.7106227106227,809.8901098901099,911.4285714285714,706.3369963369963,-0.395264,0.054810,0.909485,0.687866,-0.343933,0.157013,1,1,1,1,1,100.000000
2025-03-26 11:25:07.430,0.7460015830183884,-0.1047124240089389,0.05959895432851598,0.7946159526927293,0.4008668432811057,-0.2227623641943297,-0.3743236755607566,0.3540535013463386,0.4987105418113856,-0.001321308071354579,-0.1389789037852546,0.6013658444253782,0.4479497293325024,-0.2106043663062465,-0.1553428539372614,0.469016351213341,-0.04084353156415915,-0.3164202001635694,-0.5212796034861502,0.1115065684667243,807.4725274725275,799.0109890109891,811.9047619047619,813.1135531135532,894.1025641025641,684.5787545787546,-0.395264,0.054810,0.909485,0.687866,-0.343933,0.157013,1,1,1,1,1,100.000000
2025-03-26 11:25:07.431,0.7460015830183884,-0.1047124240089389,0.05959895432851598,0.7946159526927293,0.4008668432811057,-0.2227623641943297,-0.3743236755607566,0.3540535013463386,0.4987105418113856,-0.001321308071354579,-0.1389789037852546,0.6013658444253782,0.4479497293325024,-0.2106043663062465,-0.1553428539372614,0.469016351213341,-0.04084353156415915,-0.3164202001635694,-0.5212796034861502,0.1115065684667243,805.0549450549451,795.3846153846154,808.6813186813187,810.2930402930403,920.2930402930403,788.9377289377289,-0.395264,0.054810,0.909485,0.687866,-0.343933,0.157013,1,1,1,1,1,100.000000
2025-03-26 11:25:07.431,0.7724805941656864,-0.1185104417101636,0.1168088818692291,0.8409353158267727,0.4106065173887185,-0.2275910408301043,-0.3653061583840023,0.3474751954478775,0.4895407305766313,-0.006424922936163569,-0.1364430264071858,0.5782943858427523,0.4627225499444435,-0.2031826295856253,-0.1301640525253463,0.4384854749272318,-0.03128998130625749,-0.3274568184375258,-0.5243999903191811,0.05758594344879822,802.2344322344322,790.1465201465202,804.6520146520147,802.6373626373627,906.1904761904763,784.9084249084249,-0.395264,0.054810,0.909485,0.687866,-0.343933,0.157013,1,1,1,1,1,100.000000
2025-03-26 11:25:07.432,0.7724805941656864,-0.1185104417101636,0.1168088818692291,0.8409353158267727,0.4106065173887185,-0.2275910408301043,-0.3653061583840023,0.3474751954478775,0.4895407305766313,-0.006424922936163569,-0.1364430264071858,0.5782943858427523,0.4627225499444435,-0.2031826295856253,-0.1301640525253463,0.4384854749272318,-0.03128998130625749,-0.3274568184375258,-0.5243999903191811,0.05758594344879822,809.0842490842491,792.967032967033,803.8461538461539,809.0842490842491,774.8351648351648,554.8351648351648,-0.398010,0.054749,0.909790,0.575714,-0.680389,0.620575,1,1,1,1,1,100.000000
2025-03-26 11:25:07.432,0.7724805941656864,-0.1185104417101636,0.1168088818692291,0.8409353158267727,0.4106065173887185,-0.2275910408301043,-0.3653061583840023,0.3474751954478775,0.4895407305766313,-0.006424922936163569,-0.1364430264071858,0.5782943858427523,0.4627225499444435,-0.2031826295856253,-0.1301640525253463,0.4384854749272318,-0.03128998130625749,-0.3274568184375258,-0.5243999903191811,0.05758594344879822,811.0989010989011,798.2051282051282,807.4725274725275,815.5311355311355,793.7728937728938,573.7728937728938,-0.398010,0.054749,0.909790,0.575714,-0.680389,0.620575,1,1,1,1,1,100.000000
2025-03-26 11:25:07.433,0.7724805941656864,-0.1185104417101636,0.1168088818692291,0.8409353158267727,0.4106065173887185,-0.2275910408301043,-0.3653061583840023,0.3474751954478775,0.4895407305766313,-0.006424922936163569,-0.1364430264071858,0.5782943858427523,0.4627225499444435,-0.2031826295856253,-0.1301640525253463,0.4384854749272318,-0.03128998130625749,-0.3274568184375258,-0.5243999903191811,0.05758594344879822,802.2344322344322,801.025641025641,809.8901098901099,809.4871794871796,880.8058608058608,792.1611721611722,-0.398010,0.054749,0.909790,0.575714,-0.680389,0.620575,1,1,1,1,1,100.000000
2025-03-26 11:25:07.433,0.7724805941656864,-0.1185104417101636,0.1168088818692291,0.8409353158267727,0.4106065173887185,-0.2275910408301043,-0.3653061583840023,0.3474751954478775,0.4895407305766313,-0.006424922936163569,-0.1364430264071858,0.5782943858427523,0.4627225499444435,-0.2031826295856253,-0.1301640525253463,0.4384854749272318,-0.03128998130625749,-0.3274568184375258,-0.5243999903191811,0.05758594344879822,797.8021978021978,800.2197802197802,807.4725274725275,801.025641025641,958.5714285714286,870.7326007326008,-0.398010,0.054749,0.909790,0.575714,-0.680389,0.620575,1,1,1,1,1,100.000000
2025-03-26 11:25:07.433,0.7724805941656864,-0.1185104417101636,0.1168088818692291,0.8409353158267727,0.4106065173887185,-0.2275910408301043,-0.3653061583840023,0.3474751954478775,0.4895407305766313,-0.006424922936163569,-0.1364430264071858,0.5782943858427523,0.4627225499444435,-0.2031826295856253,-0.1301640525253463,0.4384854749272318,-0.03128998130625749,-0.3274568184375258,-0.5243999903191811,0.05758594344879822,804.2490842490843,801.4285714285714,804.6520146520147,802.2344322344322,919.8901098901099,758.7179487179487,-0.398010,0.054749,0.909790,0.575714,-0.680389,0.620575,1,1,1,1,1,100.000000
2025-03-26 11:25:07.433,0.7724805941656864,-0.1185104417101636,0.1168088818692291,0.8409353158267727,0.4106065173887185,-0.2275910408301043,-0.3653061583840023,0.3474751954478775,0.4895407305766313,-0.006424922936163569,-0.1364430264071858,0.5782943858427523,0.4627225499444435,-0.2031826295856253,-0.1301640525253463,0.4384854749272318,-0.03128998130625749,-0.3274568184375258,-0.5243999903191811,0.05758594344879822,804.2490842490843,803.040293040293,804.6520146520147,805.8608058608058,865.4945054945056,936.4102564102565,-0.398010,0.054749,0.909790,0.575714,-0.680389,0.620575,1,1,1,1,1,100.000000
2025-03-26 11:25:07.434,0.7724805941656864,-0.1185104417101636,0.1168088818692291,0.8409353158267727,0.4106065173887185,-0.2275910408301043,-0.3653061583840023,0.3474751954478775,0.4895407305766313,-0.006424922936163569,-0.1364430264071858,0.5782943858427523,0.4627225499444435,-0.2031826295856253,-0.1301640525253463,0.4384854749272318,-0.03128998130625749,-0.3274568184375258,-0.5243999903191811,0.05758594344879822,794.981684981685,801.8315018315019,803.8461538461539,801.025641025641,861.8681318681319,1156.007326007326,-0.398010,0.054749,0.909790,0.575714,-0.680389,0.620575,1,1,1,1,1,100.000000
2025-03-26 11:25:07.434,0.7724805941656864,-0.1185104417101636,0.1168088818692291,0.8409353158267727,0.4106065173887185,-0.2275910408301043,-0.3653061583840023,0.3474751954478775,0.4895407305766313,-0.006424922936163569,-0.1364430264071858,0.5782943858427523,0.4627225499444435,-0.2031826295856253,-0.1301640525253463,0.4384854749272318,-0.03128998130625749,-0.3274568184375258,-0.5243999903191811,0.05758594344879822,788.9377289377289,798.6080586080586,800.6227106227107,795.3846153846154,811.9047619047619,1111.684981684982,-0.398010,0.054749,0.909790,0.575714,-0.680389,0.620575,1,1,1,1,1,100.000000
2025-03-26 11:25:07.434,0.7724805941656864,-0.1185104417101636,0.1168088818692291,0.8409353158267727,0.4106065173887185,-0.2275910408301043,-0.3653061583840023,0.3474751954478775,0.4895407305766313,-0.006424922936163569,-0.1364430264071858,0.5782943858427523,0.4627225499444435,-0.2031826295856253,-0.1301640525253463,0.4384854749272318,-0.03128998130625749,-0.3274568184375258,-0.5243999903191811,0.05758594344879822,792.967032967033,797.3992673992674,799.8168498168499,797.3992673992674,814.7252747252747,975.8974358974359,-0.398010,0.054749,0.909790,0.575714,-0.680389,0.620575,1,1,1,1,1,100.000000
2025-03-26 11:25:07.434,0.7724805941656864,-0.1185104417101636,0.1168088818692291,0.8409353158267727,0.4106065173887185,-0.2275910408301043,-0.3653061583840023,0.3474751954478775,0.4895407305766313,-0.006424922936163569,-0.1364430264071858,0.5782943858427523,0.4627225499444435,-0.2031826295856253,-0.1301640525253463,0.4384854749272318,-0.03128998130625749,-0.3274568184375258,-0.5243999903191811,0.05758594344879822,794.5787545787546,796.1904761904763,800.2197802197802,797.3992673992674,870.7326007326008,749.047619047619,-0.398010,0.054749,0.909790,0.575714,-0.680389,0.620575,1,1,1,1,1,100.000000
2025-03-26 11:25:07.435,0.7724805941656864,-0.1185104417101636,0.1168088818692291,0.8409353158267727,0.4106065173887185,-0.2275910408301043,-0.3653061583840023,0.3474751954478775,0.4895407305766313,-0.006424922936163569,-0.1364430264071858,0.5782943858427523,0.4627225499444435,-0.2031826295856253,-0.1301640525253463,0.4384854749272318,-0.03128998130625749,-0.3274568184375258,-0.5243999903191811,0.05758594344879822,788.9377289377289,794.1758241758242,798.2051282051282,796.5934065934066,855.4212454212454,666.4468864468864,-0.398010,0.054749,0.909790,0.575714,-0.680389,0.620575,1,1,1,1,1,100.000000
2025-03-26 11:25:07.435,0.7724805941656864,-0.1185104417101636,0.1168088818692291,0.8409353158267727,0.4106065173887185,-0.2275910408301043,-0.3653061583840023,0.3474751954478775,0.4895407305766313,-0.006424922936163569,-0.1364430264071858,0.5782943858427523,0.4627225499444435,-0.2031826295856253,-0.1301640525253463,0.4384854749272318,-0.03128998130625749,-0.3274568184375258,-0.5243999903191811,0.05758594344879822,797.3992673992674,801.4285714285714,803.4432234432235,801.025641025641,894.1025641025641,732.9304029304029,-0.398010,0.054749,0.909790,0.575714,-0.680389,0.620575,1,1,1,1,1,100.000000
2025-03-26 11:25:07.436,0.7724805941656864,-0.1185104417101636,0.1168088818692291,0.8409353158267727,0.4106065173887185,-0.2275910408301043,-0.3653061583840023,0.3474751954478775,0.4895407305766313,-0.006424922936163569,-0.1364430264071858,0.5782943858427523,0.4627225499444435,-0.2031826295856253,-0.1301640525253463,0.4384854749272318,-0.03128998130625749,-0.3274568184375258,-0.5243999903191811,0.05758594344879822,804.6520146520147,809.0842490842491,807.0695970695971,807.0695970695971,920.6959706959707,697.4725274725275,-0.399536,0.057739,0.906006,0.583191,-1.136475,0.844879,1,1,1,1,1,100.000000
2025-03-26 11:25:07.436,0.7724805941656864,-0.1185104417101636,0.1168088818692291,0.8409353158267727,0.4106065173887185,-0.2275910408301043,-0.3653061583840023,0.3474751954478775,0.4895407305766313,-0.006424922936163569,-0.1364430264071858,0.5782943858427523,0.4627225499444435,-0.2031826295856253,-0.1301640525253463,0.4384854749272318,-0.03128998130625749,-0.3274568184375258,-0.5243999903191811,0.05758594344879822,803.040293040293,807.4725274725275,804.2490842490843,803.040293040293,848.974358974359,658.7912087912088,-0.399536,0.057739,0.906006,0.583191,-1.136475,0.844879,1,1,1,1,1,100.000000
2025-03-26 11:25:07.436,0.7724805941656864,-0.1185104417101636,0.1168088818692291,0.8409353158267727,0.4106065173887185,-0.2275910408301043,-0.3653061583840023,0.3474751954478775,0.4895407305766313,-0.006424922936163569,-0.1364430264071858,0.5782943858427523,0.4627225499444435,-0.2031826295856253,-0.1301640525253463,0.4384854749272318,-0.03128998130625749,-0.3274568184375258,-0.5243999903191811,0.05758594344879822,799.4139194139194,804.2490842490843,796.1904761904763,793.7728937728938,819.96336996337,761.941391941392,-0.399536,0.057739,0.906006,0.583191,-1.136475,0.844879,1,1,1,1,1,100.000000
2025-03-26 11:25:07.437,0.7724805941656864,-0.1185104417101636,0.1168088818692291,0.8409353158267727,0.4106065173887185,-0.2275910408301043,-0.3653061583840023,0.3474751954478775,0.4895407305766313,-0.006424922936163569,-0.1364430264071858,0.5782943858427523,0.4627225499444435,-0.2031826295856253,-0.1301640525253463,0.4384854749272318,-0.03128998130625749,-0.3274568184375258,-0.5243999903191811,0.05758594344879822,796.5934065934066,800.6227106227107,794.5787545787546,795.7875457875458,868.7179487179487,803.040293040293,-0.399536,0.057739,0.906006,0.583191,-1.136475,0.844879,1,1,1,1,1,100.000000
2025-03-26 11:25:07.437,0.7724805941656864,-0.1185104417101636,0.1168088818692291,0.8409353158267727,0.4106065173887185,-0.2275910408301043,-0.3653061583840023,0.3474751954478775,0.4895407305766313,-0.006424922936163569,-0.1364430264071858,0.5782943858427523,0.4627225499444435,-0.2031826295856253,-0.1301640525253463,0.4384854749272318,-0.03128998130625749,-0.3274568184375258,-0.5243999903191811,0.05758594344879822,800.6227106227107,799.8168498168499,801.8315018315019,799.4139194139194,913.4432234432235,796.5934065934066,-0.399536,0.057739,0.906006,0.583191,-1.136475,0.844879,1,1,1,1,1,100.000000
2025-03-26 11:25:07.437,0.7724805941656864,-0.1185104417101636,0.1168088818692291,0.8409353158267727,0.4106065173887185,-0.2275910408301043,-0.3653061583840023,0.3474751954478775,0.4895407305766313,-0.006424922936163569,-0.1364430264071858,0.5782943858427523,0.4627225499444435,-0.2031826295856253,-0.1301640525253463,0.4384854749272318,-0.03128998130625749,-0.3274568184375258,-0.5243999903191811,0.05758594344879822,793.3699633699634,801.025641025641,805.8608058608058,798.6080586080586,839.7069597069598,944.8717948717949,-0.399536,0.057739,0.906006,0.583191,-1.136475,0.844879,1,1,1,1,1,100.000000
2025-03-26 11:25:07.437,0.7724805941656864,-0.1185104417101636,0.1168088818692291,0.8409353158267727,0.4106065173887185,-0.2275910408301043,-0.3653061583840023,0.3474751954478775,0.4895407305766313,-0.006424922936163569,-0.1364430264071858,0.5782943858427523,0.4627225499444435,-0.2031826295856253,-0.1301640525253463,0.4384854749272318,-0.03128998130625749,-0.3274568184375258,-0.5243999903191811,0.05758594344879822,794.1758241758242,807.4725274725275,805.0549450549451,803.8461538461539,772.014652014652,1072.600732600733,-0.399536,0.057739,0.906006,0.583191,-1.136475,0.844879,1,1,1,1,1,100.000000
2025-03-26 11:25:07.438,0.7724805941656864,-0.1185104417101636,0.1168088818692291,0.8409353158267727,0.4106065173887185,-0.2275910408301043,-0.3653061583840023,0.3474751954478775,0.4895407305766313,-0.006424922936163569,-0.1364430264071858,0.5782943858427523,0.4627225499444435,-0.2031826295856253,-0.1301640525253463,0.4384854749272318,-0.03128998130625749,-0.3274568184375258,-0.5243999903191811,0.05758594344879822,799.0109890109891,807.8754578754579,800.6227106227107,804.6520146520147,787.7289377289378,925.5311355311355,-0.399536,0.057739,0.906006,0.583191,-1.136475,0.844879,1,1,1,1,1,100.000000
2025-03-26 11:25:07.438,0.7724805941656864,-0.1185104417101636,0.1168088818692291,0.8409353158267727,0.4106065173887185,-0.2275910408301043,-0.3653061583840023,0.3474751954478775,0.4895407305766313,-0.006424922936163569,-0.1364430264071858,0.5782943858427523,0.4627225499444435,-0.2031826295856253,-0.1301640525253463,0.4384854749272318,-0.03128998130625749,-0.3274568184375258,-0.5243999903191811,0.05758594344879822,792.967032967033,802.2344322344322,796.1904761904763,795.3846153846154,817.5457875457876,597.5457875457876,-0.399536,0.057739,0.906006,0.583191,-1.136475,0.844879,1,1,1,1,1,100.000000
2025-03-26 11:25:07.438,0.7724805941656864,-0.1185104417101636,0.1168088818692291,0.8409353158267727,0.4106065173887185,-0.2275910408301043,-0.3653061583840023,0.3474751954478775,0.4895407305766313,-0.006424922936163569,-0.1364430264071858,0.5782943858427523,0.4627225499444435,-0.2031826295856253,-0.1301640525253463,0.4384854749272318,-0.03128998130625749,-0.3274568184375258,-0.5243999903191811,0.05758594344879822,791.7582417582418,798.6080586080586,793.3699633699634,789.7435897435897,849.7802197802198,590.2930402930403,-0.399536,0.057739,0.906006,0.583191,-1.136475,0.844879,1,1,1,1,1,100.000000
2025-03-26 11:25:07.438,0.7724805941656864,-0.1185104417101636,0.1168088818692291,0.8409353158267727,0.4106065173887185,-0.2275910408301043,-0.3653061583840023,0.3474751954478775,0.4895407305766313,-0.006424922936163569,-0.1364430264071858,0.5782943858427523,0.4627225499444435,-0.2031826295856253,-0.1301640525253463,0.4384854749272318,-0.03128998130625749,-0.3274568184375258,-0.5243999903191811,0.05758594344879822,794.1758241758242,799.0109890109891,796.996336996337,796.5934065934066,777.2527472527473,633.4065934065934,-0.399536,0.057739,0.906006,0.583191,-1.136475,0.844879,1,1,1,1,1,100.000000
2025-03-26 11:25:07.439,0.7724805941656864,-0.1185104417101636,0.1168088818692291,0.8409353158267727,0.4106065173887185,-0.2275910408301043,-0.3653061583840023,0.3474751954478775,0.4895407305766313,-0.006424922936163569,-0.1364430264071858,0.5782943858427523,0.4627225499444435,-0.2031826295856253,-0.1301640525253463,0.4384854749272318,-0.03128998130625749,-0.3274568184375258,-0.5243999903191811,0.05758594344879822,796.1904761904763,803.040293040293,799.8168498168499,803.040293040293,742.6007326007326,743.8095238095239,-0.399536,0.057739,0.906006,0.583191,-1.136475,0.844879,1,1,1,1,1,100.000000
2025-03-26 11:25:07.439,0.7724805941656864,-0.1185104417101636,0.1168088818692291,0.8409353158267727,0.4106065173887185,-0.2275910408301043,-0.3653061583840023,0.3474751954478775,0.4895407305766313,-0.006424922936163569,-0.1364430264071858,0.5782943858427523,0.4627225499444435,-0.2031826295856253,-0.1301640525253463,0.4384854749272318,-0.03128998130625749,-0.3274568184375258,-0.5243999903191811,0.05758594344879822,793.7728937728938,806.6666666666667,797.8021978021978,797.8021978021978,770.8058608058608,819.5604395604396,-0.398438,0.055542,0.906677,0.747681,-1.390686,0.897217,1,1,1,1,1,100.000000
2025-03-26 11:25:07.439,0.8006990147441276,-0.1445681899069523,0.1682519041788196,0.8548405110239633,0.4237683202619164,-0.2323827865509186,-0.341420018378887,0.3290310358841622,0.4113650291383747,0.004169163243651396,-0.1364430264071858,0.5263002858610124,0.4717521336455355,-0.2028239977867168,-0.1162673299548753,0.3835948219115571,-0.02141020234319905,-0.3370332596518515,-0.5357090767899775,-0.0215137500189573,790.1465201465202,804.2490842490843,795.3846153846154,789.3406593406594,775.2380952380953,636.6300366300367,-0.398438,0.055542,0.906677,0.747681,-1.390686,0.897217,1,1,1,1,1,100.000000
2025-03-26 11:25:07.440,0.8006990147441276,-0.1445681899069523,0.1682519041788196,0.8548405110239633,0.4237683202619164,-0.2323827865509186,-0.341420018378887,0.3290310358841622,0.4113650291383747,0.004169163243651396,-0.1364430264071858,0.5263002858610124,0.4717521336455355,-0.2028239977867168,-0.1162673299548753,0.3835948219115571,-0.02141020234319905,-0.3370332596518515,-0.5357090767899775,-0.0215137500189573,788.5347985347986,800.2197802197802,792.5641025641025,793.3699633699634,774.4322344322345,684.5787545787546,-0.398438,0.055542,0.906677,0.747681,-1.390686,0.897217,1,1,1,1,1,100.000000
2025-03-26 11:25:07.440,0.8006990147441276,-0.1445681899069523,0.1682519041788196,0.8548405110239633,0.4237683202619164,-0.2323827865509186,-0.341420018378887,0.3290310358841622,0.4113650291383747,0.004169163243651396,-0.1364430264071858,0.5263002858610124,0.4717521336455355,-0.2028239977867168,-0.1162673299548753,0.3835948219115571,-0.02141020234319905,-0.3370332596518515,-0.5357090767899775,-0.0215137500189573,787.7289377289378,799.4139194139194,795.7875457875458,801.4285714285714,786.1172161172161,717.2161172161173,-0.398438,0.055542,0.906677,0.747681,-1.390686,0.897217,1,1,1,1,1,100.000000
2025-03-26 11:25:07.440,0.8006990147441276,-0.1445681899069523,0.1682519041788196,0.8548405110239633,0.4237683202619164,-0.2323827865509186,-0.341420018378887,0.3290310358841622,0.4113650291383747,0.004169163243651396,-0.1364430264071858,0.5263002858610124,0.4717521336455355,-0.2028239977867168,-0.1162673299548753,0.3835948219115571,-0.02141020234319905,-0.3370332596518515,-0.5357090767899775,-0.0215137500189573,786.9230769230769,794.1758241758242,801.4285714285714,798.6080586080586,815.934065934066,770.8058608058608,-0.398438,0.055542,0.906677,0.747681,-1.390686,0.897217,1,1,1,1,1,100.000000
2025-03-26 11:25:07.441,0.8006990147441276,-0.1445681899069523,0.1682519041788196,0.8548405110239633,0.4237683202619164,-0.2323827865509186,-0.341420018378887,0.3290310358841622,0.4113650291383747,0.004169163243651396,-0.1364430264071858,0.5263002858610124,0.4717521336455355,-0.2028239977867168,-0.1162673299548753,0.3835948219115571,-0.02141020234319905,-0.3370332596518515,-0.5357090767899775,-0.0215137500189573,797.3992673992674,794.5787545787546,797.8021978021978,798.2051282051282,799.8168498168499,993.6263736263736,-0.398438,0.055542,0.906677,0.747681,-1.390686,0.897217,1,1,1,1,1,100.000000
2025-03-26 11:25:07.441,0.8006990147441276,-0.1445681899069523,0.1682519041788196,0.8548405110239633,0.4237683202619164,-0.2323827865509186,-0.341420018378887,0.3290310358841622,0.4113650291383747,0.004169163243651396,-0.1364430264071858,0.5263002858610124,0.4717521336455355,-0.2028239977867168,-0.1162673299548753,0.3835948219115571,-0.02141020234319905,-0.3370332596518515,-0.5357090767899775,-0.0215137500189573,801.8315018315019,802.2344322344322,799.8168498168499,801.4285714285714,859.8534798534798,1172.527472527473,-0.398438,0.055542,0.906677,0.747681,-1.390686,0.897217,1,1,1,1,1,100.000000
2025-03-26 11:25:07.441,0.8006990147441276,-0.1445681899069523,0.1682519041788196,0.8548405110239633,0.4237683202619164,-0.2323827865509186,-0.341420018378887,0.3290310358841622,0.4113650291383747,0.004169163243651396,-0.1364430264071858,0.5263002858610124,0.4717521336455355,-0.2028239977867168,-0.1162673299548753,0.3835948219115571,-0.02141020234319905,-0.3370332596518515,-0.5357090767899775,-0.0215137500189573,792.5641025641025,804.2490842490843,803.8461538461539,796.996336996337,842.1245421245421,1218.058608058608,-0.398438,0.055542,0.906677,0.747681,-1.390686,0.897217,1,1,1,1,1,100.000000
2025-03-26 11:25:07.441,0.8006990147441276,-0.1445681899069523,0.1682519041788196,0.8548405110239633,0.4237683202619164,-0.2323827865509186,-0.341420018378887,0.3290310358841622,0.4113650291383747,0.004169163243651396,-0.1364430264071858,0.5263002858610124,0.4717521336455355,-0.2028239977867168,-0.1162673299548753,0.3835948219115571,-0.02141020234319905,-0.3370332596518515,-0.5357090767899775,-0.0215137500189573,793.7728937728938,801.4285714285714,805.4578754578755,794.5787545787546,795.3846153846154,857.4358974358975,-0.398438,0.055542,0.906677,0.747681,-1.390686,0.897217,1,1,1,1,1,100.000000
2025-03-26 11:25:07.442,0.8006990147441276,-0.1445681899069523,0.1682519041788196,0.8548405110239633,0.4237683202619164,-0.2323827865509186,-0.341420018378887,0.3290310358841622,0.4113650291383747,0.004169163243651396,-0.1364430264071858,0.5263002858610124,0.4717521336455355,-0.2028239977867168,-0.1162673299548753,0.3835948219115571,-0.02141020234319905,-0.3370332596518515,-0.5357090767899775,-0.0215137500189573,794.5787545787546,799.8168498168499,803.8461538461539,792.5641025641025,824.3956043956044,570.5494505494505,-0.398438,0.055542,0.906677,0.747681,-1.390686,0.897217,1,1,1,1,1,100.000000
2025-03-26 11:25:07.442,0.8006990147441276,-0.1445681899069523,0.1682519041788196,0.8548405110239633,0.4237683202619164,-0.2323827865509186,-0.341420018378887,0.3290310358841622,0.4113650291383747,0.004169163243651396,-0.1364430264071858,0.5263002858610124,0.4717521336455355,-0.2028239977867168,-0.1162673299548753,0.3835948219115571,-0.02141020234319905,-0.3370332596518515,-0.5357090767899775,-0.0215137500189573,786.9230769230769,805.4578754578755,801.8315018315019,791.7582417582418,818.3516483516484,677.7289377289377,-0.398438,0.055542,0.906677,0.747681,-1.390686,0.897217,1,1,1,1,1,100.000000
2025-03-26 11:25:07.442,0.8006990147441276,-0.1445681899069523,0.1682519041788196,0.8548405110239633,0.4237683202619164,-0.2323827865509186,-0.341420018378887,0.3290310358841622,0.4113650291383747,0.004169163243651396,-0.1364430264071858,0.5263002858610124,0.4717521336455355,-0.2028239977867168,-0.1162673299548753,0.3835948219115571,-0.02141020234319905,-0.3370332596518515,-0.5357090767899775,-0.0215137500189573,787.3260073260074,811.9047619047619,801.025641025641,799.8168498168499,850.1831501831502,731.7216117216118,-0.398438,0.055542,0.906677,0.747681,-1.390686,0.897217,1,1,1,1,1,100.000000
2025-03-26 11:25:07.442,0.8006990147441276,-0.1445681899069523,0.1682519041788196,0.8548405110239633,0.4237683202619164,-0.2323827865509186,-0.341420018378887,0.3290310358841622,0.4113650291383747,0.004169163243651396,-0.1364430264071858,0.5263002858610124,0.4717521336455355,-0.2028239977867168,-0.1162673299548753,0.3835948219115571,-0.02141020234319905,-0.3370332596518515,-0.5357090767899775,-0.0215137500189573,801.4285714285714,810.6959706959707,799.0109890109891,803.4432234432235,844.9450549450549,654.3589743589744,-0.398438,0.055542,0.906677,0.747681,-1.390686,0.897217,1,1,1,1,1,100.000000
2025-03-26 11:25:07.443,0.8006990147441276,-0.1445681899069523,0.1682519041788196,0.8548405110239633,0.4237683202619164,-0.2323827865509186,-0.341420018378887,0.3290310358841622,0.4113650291383747,0.004169163243651396,-0.1364430264071858,0.5263002858610124,0.4717521336455355,-0.2028239977867168,-0.1162673299548753,0.3835948219115571,-0.02141020234319905,-0.3370332596518515,-0.5357090767899775,-0.0215137500189573,806.2637362637363,810.6959706959707,801.025641025641,802.2344322344322,792.1611721611722,578.6080586080586,-0.398438,0.055542,0.906677,0.747681,-1.390686,0.897217,1,1,1,1,1,100.000000
2025-03-26 11:25:07.443,0.8006990147441276,-0.1445681899069523,0.1682519041788196,0.8548405110239633,0.4237683202619164,-0.2323827865509186,-0.341420018378887,0.3290310358841622,0.4113650291383747,0.004169163243651396,-0.1364430264071858,0.5263002858610124,0.4717521336455355,-0.2028239977867168,-0.1162673299548753,0.3835948219115571,-0.02141020234319905,-0.3370332596518515,-0.5357090767899775,-0.0215137500189573,794.981684981685,810.6959706959707,801.8315018315019,800.6227106227107,784.1025641025641,678.9377289377289,-0.398438,0.055542,0.906677,0.747681,-1.390686,0.897217,1,1,1,1,1,100.000000
2025-03-26 11:25:07.443,0.8006990147441276,-0.1445681899069523,0.1682519041788196,0.8548405110239633,0.4237683202619164,-0.2323827865509186,-0.341420018378887,0.3290310358841622,0.4113650291383747,0.004169163243651396,-0.1364430264071858,0.5263002858610124,0.4717521336455355,-0.2028239977867168,-0.1162673299548753,0.3835948219115571,-0.02141020234319905,-0.3370332596518515,-0.5357090767899775,-0.0215137500189573,791.7582417582418,810.2930402930403,797.8021978021978,797.3992673992674,775.6410256410256,815.1282051282052,-0.398438,0.055542,0.906677,0.747681,-1.390686,0.897217,1,1,1,1,1,100.000000
2025-03-26 11:25:07.444,0.8006990147441276,-0.1445681899069523,0.1682519041788196,0.8548405110239633,0.4237683202619164,-0.2323827865509186,-0.341420018378887,0.3290310358841622,0.4113650291383747,0.004169163243651396,-0.1364430264071858,0.5263002858610124,0.4717521336455355,-0.2028239977867168,-0.1162673299548753,0.3835948219115571,-0.02141020234319905,-0.3370332596518515,-0.5357090767899775,-0.0215137500189573,795.7875457875458,809.8901098901099,799.0109890109891,802.2344322344322,843.7362637362637,871.1355311355312,-0.398438,0.055542,0.906677,0.747681,-1.390686,0.897217,1,1,1,1,1,100.000000
2025-03-26 11:25:07.444,0.8006990147441276,-0.1445681899069523,0.1682519041788196,0.8548405110239633,0.4237683202619164,-0.2323827865509186,-0.341420018378887,0.3290310358841622,0.4113650291383747,0.004169163243651396,-0.1364430264071858,0.5263002858610124,0.4717521336455355,-0.2028239977867168,-0.1162673299548753,0.3835948219115571,-0.02141020234319905,-0.3370332596518515,-0.5357090767899775,-0.0215137500189573,798.6080586080586,808.2783882783883,802.2344322344322,804.6520146520147,864.6886446886447,1028.278388278388,-0.398438,0.055542,0.906677,0.747681,-1.390686,0.897217,1,1,1,1,1,100.000000
2025-03-26 11:25:07.444,0.8006990147441276,-0.1445681899069523,0.1682519041788196,0.8548405110239633,0.4237683202619164,-0.2323827865509186,-0.341420018378887,0.3290310358841622,0.4113650291383747,0.004169163243651396,-0.1364430264071858,0.5263002858610124,0.4717521336455355,-0.2028239977867168,-0.1162673299548753,0.3835948219115571,-0.02141020234319905,-0.3370332596518515,-0.5357090767899775,-0.0215137500189573,801.025641025641,805.8608058608058,802.2344322344322,802.2344322344322,837.2893772893773,1132.637362637363,-0.398438,0.055542,0.906677,0.747681,-1.390686,0.897217,1,1,1,1,1,100.000000
2025-03-26 11:25:07.444,0.8006990147441276,-0.1445681899069523,0.1682519041788196,0.8548405110239633,0.4237683202619164,-0.2323827865509186,-0.341420018378887,0.3290310358841622,0.4113650291383747,0.004169163243651396,-0.1364430264071858,0.5263002858610124,0.4717521336455355,-0.2028239977867168,-0.1162673299548753,0.3835948219115571,-0.02141020234319905,-0.3370332596518515,-0.5357090767899775,-0.0215137500189573,797.8021978021978,801.8315018315019,802.2344322344322,805.0549450549451,846.959706959707,919.4871794871796,-0.398438,0.055542,0.906677,0.747681,-1.390686,0.897217,1,1,1,1,1,100.000000
2025-03-26 11:25:07.445,0.8006990147441276,-0.1445681899069523,0.1682519041788196,0.8548405110239633,0.4237683202619164,-0.2323827865509186,-0.341420018378887,0.3290310358841622,0.4113650291383747,0.004169163243651396,-0.1364430264071858,0.5263002858610124,0.4717521336455355,-0.2028239977867168,-0.1162673299548753,0.3835948219115571,-0.02141020234319905,-0.3370332596518515,-0.5357090767899775,-0.0215137500189573,798.6080586080586,800.2197802197802,801.8315018315019,807.0695970695971,867.9120879120879,604.3956043956044,-0.398438,0.055542,0.906677,0.747681,-1.390686,0.897217,1,1,1,1,1,100.000000
2025-03-26 11:25:07.445,0.8006990147441276,-0.1445681899069523,0.1682519041788196,0.8548405110239633,0.4237683202619164,-0.2323827865509186,-0.341420018378887,0.3290310358841622,0.4113650291383747,0.004169163243651396,-0.1364430264071858,0.5263002858610124,0.4717521336455355,-0.2028239977867168,-0.1162673299548753,0.3835948219115571,-0.02141020234319905,-0.3370332596518515,-0.5357090767899775,-0.0215137500189573,803.4432234432235,804.2490842490843,803.4432234432235,801.4285714285714,895.7142857142858,674.9084249084249,-0.398438,0.055542,0.906677,0.747681,-1.390686,0.897217,1,1,1,1,1,100.000000
2025-03-26 11:25:07.445,0.8006990147441276,-0.1445681899069523,0.1682519041788196,0.8548405110239633,0.4237683202619164,-0.2323827865509186,-0.341420018378887,0.3290310358841622,0.4113650291383747,0.004169163243651396,-0.1364430264071858,0.5263002858610124,0.4717521336455355,-0.2028239977867168,-0.1162673299548753,0.3835948219115571,-0.02141020234319905,-0.3370332596518515,-0.5357090767899775,-0.0215137500189573,801.025641025641,806.2637362637363,805.0549450549451,803.8461538461539,871.5384615384615,846.1538461538462,-0.398438,0.055542,0.906677,0.747681,-1.390686,0.897217,1,1,1,1,1,100.000000
2025-03-26 11:25:07.445,0.8006990147441276,-0.1445681899069523,0.1682519041788196,0.8548405110239633,0.4237683202619164,-0.2323827865509186,-0.341420018378887,0.3290310358841622,0.4113650291383747,0.004169163243651396,-0.1364430264071858,0.5263002858610124,0.4717521336455355,-0.2028239977867168,-0.1162673299548753,0.3835948219115571,-0.02141020234319905,-0.3370332596518515,-0.5357090767899775,-0.0215137500189573,805.0549450549451,804.6520146520147,804.2490842490843,813.5164835164835,872.7472527472528,772.014652014652,-0.398438,0.055542,0.906677,0.747681,-1.390686,0.897217,1,1,1,1,1,100.000000
2025-03-26 11:25:07.446,0.8006990147441276,-0.1445681899069523,0.1682519041788196,0.8548405110239633,0.4237683202619164,-0.2323827865509186,-0.341420018378887,0.3290310358841622,0.4113650291383747,0.004169163243651396,-0.1364430264071858,0.5263002858610124,0.4717521336455355,-0.2028239977867168,-0.1162673299548753,0.3835948219115571,-0.02141020234319905,-0.3370332596518515,-0.5357090767899775,-0.0215137500189573,808.2783882783883,802.2344322344322,801.8315018315019,815.934065934066,875.1648351648352,693.040293040293,-0.395203,0.059937,0.909241,0.523376,-1.644897,0.568237,1,1,1,1,1,100.000000
2025-03-26 11:25:07.446,0.8006990147441276,-0.1445681899069523,0.1682519041788196,0.8548405110239633,0.4237683202619164,-0.2323827865509186,-0.341420018378887,0.3290310358841622,0.4113650291383747,0.004169163243651396,-0.1364430264071858,0.5263002858610124,0.4717521336455355,-0.2028239977867168,-0.1162673299548753,0.3835948219115571,-0.02141020234319905,-0.3370332596518515,-0.5357090767899775,-0.0215137500189573,807.0695970695971,800.2197802197802,802.2344322344322,809.0842490842491,853.8095238095239,686.1904761904763,-0.395203,0.059937,0.909241,0.523376,-1.644897,0.568237,1,1,1,1,1,100.000000
2025-03-26 11:25:07.447,0.8006990147441276,-0.1445681899069523,0.1682519041788196,0.8548405110239633,0.4237683202619164,-0.2323827865509186,-0.341420018378887,0.3290310358841622,0.4113650291383747,0.004169163243651396,-0.1364430264071858,0.5263002858610124,0.4717521336455355,-0.2028239977867168,-0.1162673299548753,0.3835948219115571,-0.02141020234319905,-0.3370332596518515,-0.5357090767899775,-0.0215137500189573,803.040293040293,804.2490842490843,803.4432234432235,801.025641025641,875.9706959706959,768.7912087912088,-0.395203,0.059937,0.909241,0.523376,-1.644897,0.568237,1,1,1,1,1,100.000000
2025-03-26 11:25:07.447,0.8032800146552128,-0.1704991123708079,0.2091699024220856,0.8449294899334254,0.4259630040860179,-0.237480353526637,-0.2978500396474989,0.3285771593692904,0.4969946395696517,0.01225686919306499,-0.1216047920647617,0.4364177642083939,0.4518205104394711,-0.208606015048493,-0.1113633410606683,0.3342091158596689,-0.0329300895164043,-0.3500075304045649,-0.5477101070588684,-0.07885337929565542,806.6666666666667,805.8608058608058,801.8315018315019,804.6520146520147,932.3809523809524,834.0659340659341,-0.395203,0.059937,0.909241,0.523376,-1.644897,0.568237,1,1,1,1,1,100.000000
2025-03-26 11:25:07.448,0.8032800146552128,-0.1704991123708079,0.2091699024220856,0.8449294899334254,0.4259630040860179,-0.237480353526637,-0.2978500396474989,0.3285771593692904,0.4969946395696517,0.01225686919306499,-0.1216047920647617,0.4364177642083939,0.4518205104394711,-0.208606015048493,-0.1113633410606683,0.3342091158596689,-0.0329300895164043,-0.3500075304045649,-0.5477101070588684,-0.07885337929565542,806.6666666666667,803.040293040293,803.040293040293,810.2930402930403,941.2454212454213,778.0586080586081,-0.395203,0.059937,0.909241,0.523376,-1.644897,0.568237,1,1,1,1,1,100.000000
2025-03-26 11:25:07.448,0.8032800146552128,-0.1704991123708079,0.2091699024220856,0.8449294899334254,0.4259630040860179,-0.237480353526637,-0.2978500396474989,0.3285771593692904,0.4969946395696517,0.01225686919306499,-0.1216047920647617,0.4364177642083939,0.4518205104394711,-0.208606015048493,-0.1113633410606683,0.3342091158596689,-0.0329300895164043,-0.3500075304045649,-0.5477101070588684,-0.07885337929565542,802.2344322344322,806.6666666666667,798.6080586080586,805.4578754578755,917.0695970695971,974.6886446886447,-0.395203,0.059937,0.909241,0.523376,-1.644897,0.568237,1,1,1,1,1,100.000000
2025-03-26 11:25:07.448,0.8032800146552128,-0.1704991123708079,0.2091699024220856,0.8449294899334254,0.4259630040860179,-0.237480353526637,-0.2978500396474989,0.3285771593692904,0.4969946395696517,0.01225686919306499,-0.1216047920647617,0.4364177642083939,0.4518205104394711,-0.208606015048493,-0.1113633410606683,0.3342091158596689,-0.0329300895164043,-0.3500075304045649,-0.5477101070588684,-0.07885337929565542,804.2490842490843,806.6666666666667,795.3846153846154,800.2197802197802,867.1062271062272,1158.021978021978,-0.395203,0.059937,0.909241,0.523376,-1.644897,0.568237,1,1,1,1,1,100.000000
2025-03-26 11:25:07.449,0.8032800146552128,-0.1704991123708079,0.2091699024220856,0.8449294899334254,0.4259630040860179,-0.237480353526637,-0.2978500396474989,0.3285771593692904,0.4969946395696517,0.01225686919306499,-0.1216047920647617,0.4364177642083939,0.4518205104394711,-0.208606015048493,-0.1113633410606683,0.3342091158596689,-0.0329300895164043,-0.3500075304045649,-0.5477101070588684,-0.07885337929565542,807.8754578754579,805.8608058608058,799.0109890109891,795.7875457875458,867.9120879120879,1201.941391941392,-0.395203,0.059937,0.909241,0.523376,-1.644897,0.568237,1,1,1,1,1,100.000000
2025-03-26 11:25:07.449,0.8032800146552128,-0.1704991123708079,0.2091699024220856,0.8449294899334254,0.4259630040860179,-0.237480353526637,-0.2978500396474989,0.3285771593692904,0.4969946395696517,0.01225686919306499,-0.1216047920647617,0.4364177642083939,0.4518205104394711,-0.208606015048493,-0.1113633410606683,0.3342091158596689,-0.0329300895164043,-0.3500075304045649,-0.5477101070588684,-0.07885337929565542,809.4871794871796,809.0842490842491,801.4285714285714,803.4432234432235,889.6703296703297,1165.274725274725,-0.395203,0.059937,0.909241,0.523376,-1.644897,0.568237,1,1,1,1,1,100.000000
2025-03-26 11:25:07.449,0.8032800146552128,-0.1704991123708079,0.2091699024220856,0.8449294899334254,0.4259630040860179,-0.237480353526637,-0.2978500396474989,0.3285771593692904,0.4969946395696517,0.01225686919306499,-0.1216047920647617,0.4364177642083939,0.4518205104394711,-0.208606015048493,-0.1113633410606683,0.3342091158596689,-0.0329300895164043,-0.3500075304045649,-0.5477101070588684,-0.07885337929565542,809.4871794871796,810.6959706959707,800.2197802197802,807.4725274725275,852.1978021978023,818.7545787545788,-0.395203,0.059937,0.909241,0.523376,-1.644897,0.568237,1,1,1,1,1,100.000000
2025-03-26 11:25:07.449,0.8032800146552128,-0.1704991123708079,0.2091699024220856,0.8449294899334254,0.4259630040860179,-0.237480353526637,-0.2978500396474989,0.3285771593692904,0.4969946395696517,0.01225686919306499,-0.1216047920647617,0.4364177642083939,0.4518205104394711,-0.208606015048493,-0.1113633410606683,0.3342091158596689,-0.0329300895164043,-0.3500075304045649,-0.5477101070588684,-0.07885337929565542,806.2637362637363,806.6666666666667,800.6227106227107,790.952380952381,833.2600732600733,652.3443223443223,-0.395203,0.059937,0.909241,0.523376,-1.644897,0.568237,1,1,1,1,1,100.000000
2025-03-26 11:25:07.450,0.8032800146552128,-0.1704991123708079,0.2091699024220856,0.8449294899334254,0.4259630040860179,-0.237480353526637,-0.2978500396474989,0.3285771593692904,0.4969946395696517,0.01225686919306499,-0.1216047920647617,0.4364177642083939,0.4518205104394711,-0.208606015048493,-0.1113633410606683,0.3342091158596689,-0.0329300895164043,-0.3500075304045649,-0.5477101070588684,-0.07885337929565542,797.3992673992674,797.3992673992674,798.6080586080586,789.7435897435897,830.8424908424909,683.7728937728938,-0.395203,0.059937,0.909241,0.523376,-1.644897,0.568237,1,1,1,1,1,100.000000
2025-03-26 11:25:07.450,0.8032800146552128,-0.1704991123708079,0.2091699024220856,0.8449294899334254,0.4259630040860179,-0.237480353526637,-0.2978500396474989,0.3285771593692904,0.4969946395696517,0.01225686919306499,-0.1216047920647617,0.4364177642083939,0.4518205104394711,-0.208606015048493,-0.1113633410606683,0.3342091158596689,-0.0329300895164043,-0.3500075304045649,-0.5477101070588684,-0.07885337929565542,804.6520146520147,801.025641025641,796.996336996337,802.2344322344322,772.8205128205128,652.3443223443223,-0.393616,0.056763,0.912903,0.456085,-1.861725,0.328979,1,1,1,1,1,100.000000
2025-03-26 11:25:07.450,0.8032800146552128,-0.1704991123708079,0.2091699024220856,0.8449294899334254,0.4259630040860179,-0.237480353526637,-0.2978500396474989,0.3285771593692904,0.4969946395696517,0.01225686919306499,-0.1216047920647617,0.4364177642083939,0.4518205104394711,-0.208606015048493,-0.1113633410606683,0.3342091158596689,-0.0329300895164043,-0.3500075304045649,-0.5477101070588684,-0.07885337929565542,801.4285714285714,804.2490842490843,800.2197802197802,801.4285714285714,777.2527472527473,660.4029304029305,-0.393616,0.056763,0.912903,0.456085,-1.861725,0.328979,1,1,1,1,1,100.000000
2025-03-26 11:25:07.450,0.8032800146552128,-0.1704991123708079,0.2091699024220856,0.8449294899334254,0.4259630040860179,-0.237480353526637,-0.2978500396474989,0.3285771593692904,0.4969946395696517,0.01225686919306499,-0.1216047920647617,0.4364177642083939,0.4518205104394711,-0.208606015048493,-0.1113633410606683,0.3342091158596689,-0.0329300895164043,-0.3500075304045649,-0.5477101070588684,-0.07885337929565542,794.981684981685,800.2197802197802,801.8315018315019,794.5787545787546,820.3663003663004,693.040293040293,-0.393616,0.056763,0.912903,0.456085,-1.861725,0.328979,1,1,1,1,1,100.000000
2025-03-26 11:25:07.451,0.8032800146552128,-0.1704991123708079,0.2091699024220856,0.8449294899334254,0.4259630040860179,-0.237480353526637,-0.2978500396474989,0.3285771593692904,0.4969946395696517,0.01225686919306499,-0.1216047920647617,0.4364177642083939,0.4518205104394711,-0.208606015048493,-0.1113633410606683,0.3342091158596689,-0.0329300895164043,-0.3500075304045649,-0.5477101070588684,-0.07885337929565542,800.2197802197802,805.0549450549451,799.4139194139194,792.1611721611722,843.7362637362637,719.6336996336996,-0.393616,0.056763,0.912903,0.456085,-1.861725,0.328979,1,1,1,1,1,100.000000
2025-03-26 11:25:07.451,0.8032800146552128,-0.1704991123708079,0.2091699024220856,0.8449294899334254,0.4259630040860179,-0.237480353526637,-0.2978500396474989,0.3285771593692904,0.4969946395696517,0.01225686919306499,-0.1216047920647617,0.4364177642083939,0.4518205104394711,-0.208606015048493,-0.1113633410606683,0.3342091158596689,-0.0329300895164043,-0.3500075304045649,-0.5477101070588684,-0.07885337929565542,801.025641025641,809.4871794871796,797.8021978021978,794.5787545787546,853.8095238095239,678.9377289377289,-0.393616,0.056763,0.912903,0.456085,-1.861725,0.328979,1,1,1,1,1,100.000000
2025-03-26 11:25:07.451,0.8032800146552128,-0.1704991123708079,0.2091699024220856,0.8449294899334254,0.4259630040860179,-0.237480353526637,-0.2978500396474989,0.3285771593692904,0.4969946395696517,0.01225686919306499,-0.1216047920647617,0.4364177642083939,0.4518205104394711,-0.208606015048493,-0.1113633410606683,0.3342091158596689,-0.0329300895164043,-0.3500075304045649,-0.5477101070588684,-0.07885337929565542,799.0109890109891,805.0549450549451,798.2051282051282,796.1904761904763,879.5970695970697,982.7472527472528,-0.393616,0.056763,0.912903,0.456085,-1.861725,0.328979,1,1,1,1,1,100.000000
2025-03-26 11:25:07.451,0.8032800146552128,-0.1704991123708079,0.2091699024220856,0.8449294899334254,0.4259630040860179,-0.237480353526637,-0.2978500396474989,0.3285771593692904,0.4969946395696517,0.01225686919306499,-0.1216047920647617,0.4364177642083939,0.4518205104394711,-0.208606015048493,-0.1113633410606683,0.3342091158596689,-0.0329300895164043,-0.3500075304045649,-0.5477101070588684,-0.07885337929565542,802.6373626373627,805.8608058608058,803.040293040293,795.3846153846154,855.0183150183151,1216.446886446887,-0.393616,0.056763,0.912903,0.456085,-1.861725,0.328979,1,1,1,1,1,100.000000
2025-03-26 11:25:07.452,0.8032800146552128,-0.1704991123708079,0.2091699024220856,0.8449294899334254,0.4259630040860179,-0.237480353526637,-0.2978500396474989,0.3285771593692904,0.4969946395696517,0.01225686919306499,-0.1216047920647617,0.4364177642083939,0.4518205104394711,-0.208606015048493,-0.1113633410606683,0.3342091158596689,-0.0329300895164043,-0.3500075304045649,-0.5477101070588684,-0.07885337929565542,805.4578754578755,802.6373626373627,802.2344322344322,794.981684981685,842.9304029304029,909.0109890109891,-0.393616,0.056763,0.912903,0.456085,-1.861725,0.328979,1,1,1,1,1,100.000000
2025-03-26 11:25:07.452,0.8032800146552128,-0.1704991123708079,0.2091699024220856,0.8449294899334254,0.4259630040860179,-0.237480353526637,-0.2978500396474989,0.3285771593692904,0.4969946395696517,0.01225686919306499,-0.1216047920647617,0.4364177642083939,0.4518205104394711,-0.208606015048493,-0.1113633410606683,0.3342091158596689,-0.0329300895164043,-0.3500075304045649,-0.5477101070588684,-0.07885337929565542,803.4432234432235,800.6227106227107,799.8168498168499,796.1904761904763,905.7875457875458,695.4578754578755,-0.393616,0.056763,0.912903,0.456085,-1.861725,0.328979,1,1,1,1,1,100.000000
2025-03-26 11:25:07.453,0.8032800146552128,-0.1704991123708079,0.2091699024220856,0.8449294899334254,0.4259630040860179,-0.237480353526637,-0.2978500396474989,0.3285771593692904,0.4969946395696517,0.01225686919306499,-0.1216047920647617,0.4364177642083939,0.4518205104394711,-0.208606015048493,-0.1113633410606683,0.3342091158596689,-0.0329300895164043,-0.3500075304045649,-0.5477101070588684,-0.07885337929565542,808.2783882783883,808.2783882783883,804.2490842490843,803.040293040293,890.4761904761905,786.1172161172161,-0.393616,0.056763,0.912903,0.456085,-1.861725,0.328979,1,1,1,1,1,100.000000
2025-03-26 11:25:07.453,0.8032800146552128,-0.1704991123708079,0.2091699024220856,0.8449294899334254,0.4259630040860179,-0.237480353526637,-0.2978500396474989,0.3285771593692904,0.4969946395696517,0.01225686919306499,-0.1216047920647617,0.4364177642083939,0.4518205104394711,-0.208606015048493,-0.1113633410606683,0.3342091158596689,-0.0329300895164043,-0.3500075304045649,-0.5477101070588684,-0.07885337929565542,805.8608058608058,804.6520146520147,801.8315018315019,801.8315018315019,831.6483516483516,896.1172161172161,-0.393616,0.056763,0.912903,0.456085,-1.861725,0.328979,1,1,1,1,1,100.000000
2025-03-26 11:25:07.453,0.8032800146552128,-0.1704991123708079,0.2091699024220856,0.8449294899334254,0.4259630040860179,-0.237480353526637,-0.2978500396474989,0.3285771593692904,0.4969946395696517,0.01225686919306499,-0.1216047920647617,0.4364177642083939,0.4518205104394711,-0.208606015048493,-0.1113633410606683,0.3342091158596689,-0.0329300895164043,-0.3500075304045649,-0.5477101070588684,-0.07885337929565542,800.2197802197802,799.0109890109891,801.4285714285714,794.981684981685,854.6153846153846,799.4139194139194,-0.393616,0.056763,0.912903,0.456085,-1.861725,0.328979,1,1,1,1,1,100.000000
2025-03-26 11:25:07.454,0.8032800146552128,-0.1704991123708079,0.2091699024220856,0.8449294899334254,0.4259630040860179,-0.237480353526637,-0.2978500396474989,0.3285771593692904,0.4969946395696517,0.01225686919306499,-0.1216047920647617,0.4364177642083939,0.4518205104394711,-0.208606015048493,-0.1113633410606683,0.3342091158596689,-0.0329300895164043,-0.3500075304045649,-0.5477101070588684,-0.07885337929565542,799.0109890109891,800.6227106227107,802.6373626373627,795.3846153846154,856.6300366300367,614.8717948717949,-0.396362,0.063110,0.919495,0.089722,-1.532745,0.089722,1,1,1,1,1,100.000000
2025-03-26 11:25:07.454,0.8032800146552128,-0.1704991123708079,0.2091699024220856,0.8449294899334254,0.4259630040860179,-0.237480353526637,-0.2978500396474989,0.3285771593692904,0.4969946395696517,0.01225686919306499,-0.1216047920647617,0.4364177642083939,0.4518205104394711,-0.208606015048493,-0.1113633410606683,0.3342091158596689,-0.0329300895164043,-0.3500075304045649,-0.5477101070588684,-0.07885337929565542,800.6227106227107,803.4432234432235,802.6373626373627,802.6373626373627,801.8315018315019,585.4578754578755,-0.396362,0.063110,0.919495,0.089722,-1.532745,0.089722,1,1,1,1,1,100.000000
2025-03-26 11:25:07.454,0.8032800146552128,-0.1704991123708079,0.2091699024220856,0.8449294899334254,0.4259630040860179,-0.237480353526637,-0.2978500396474989,0.3285771593692904,0.4969946395696517,0.01225686919306499,-0.1216047920647617,0.4364177642083939,0.4518205104394711,-0.208606015048493,-0.1113633410606683,0.3342091158596689,-0.0329300895164043,-0.3500075304045649,-0.5477101070588684,-0.07885337929565542,806.6666666666667,807.0695970695971,805.4578754578755,810.2930402930403,847.3626373626374,755.8974358974359,-0.396362,0.063110,0.919495,0.089722,-1.532745,0.089722,1,1,1,1,1,100.000000
2025-03-26 11:25:07.455,0.8032800146552128,-0.1704991123708079,0.2091699024220856,0.8449294899334254,0.4259630040860179,-0.237480353526637,-0.2978500396474989,0.3285771593692904,0.4969946395696517,0.01225686919306499,-0.1216047920647617,0.4364177642083939,0.4518205104394711,-0.208606015048493,-0.1113633410606683,0.3342091158596689,-0.0329300895164043,-0.3500075304045649,-0.5477101070588684,-0.07885337929565542,805.8608058608058,805.8608058608058,804.2490842490843,802.6373626373627,856.6300366300367,777.6556776556777,-0.396362,0.063110,0.919495,0.089722,-1.532745,0.089722,1,1,1,1,1,100.000000
2025-03-26 11:25:07.455,0.8032800146552128,-0.1704991123708079,0.2091699024220856,0.8449294899334254,0.4259630040860179,-0.237480353526637,-0.2978500396474989,0.3285771593692904,0.4969946395696517,0.01225686919306499,-0.1216047920647617,0.4364177642083939,0.4518205104394711,-0.208606015048493,-0.1113633410606683,0.3342091158596689,-0.0329300895164043,-0.3500075304045649,-0.5477101070588684,-0.07885337929565542,794.981684981685,798.6080586080586,801.4285714285714,797.3992673992674,813.1135531135532,660.4029304029305,-0.396362,0.063110,0.919495,0.089722,-1.532745,0.089722,1,1,1,1,1,100.000000
2025-03-26 11:25:07.455,0.7860825979796413,-0.1791403786664667,0.2332288761183141,0.8037287761431874,0.4336805062547293,-0.246526237778444,-0.2373516601500691,0.3359581696309318,0.4871784712980038,0.07365393466652274,-0.1000395738965028,0.378976900863574,0.4304960047021689,-0.214323988257575,-0.1100680018677332,0.2908118414481127,-0.04611640432833637,-0.3698718336542312,-0.5514355175442611,-0.1081951237993983,801.025641025641,803.040293040293,801.4285714285714,807.4725274725275,879.5970695970697,989.1941391941392,-0.396362,0.063110,0.919495,0.089722,-1.532745,0.089722,1,1,1,1,1,100.000000
2025-03-26 11:25:07.456,0.7860825979796413,-0.1791403786664667,0.2332288761183141,0.8037287761431874,0.4336805062547293,-0.246526237778444,-0.2373516601500691,0.3359581696309318,0.4871784712980038,0.07365393466652274,-0.1000395738965028,0.378976900863574,0.4304960047021689,-0.214323988257575,-0.1100680018677332,0.2908118414481127,-0.04611640432833637,-0.3698718336542312,-0.5514355175442611,-0.1081951237993983,807.8754578754579,808.6813186813187,802.2344322344322,809.4871794871796,893.2967032967033,1306.703296703297,-0.396362,0.063110,0.919495,0.089722,-1.532745,0.089722,1,1,1,1,1,100.000000
2025-03-26 11:25:07.456,0.7860825979796413,-0.1791403786664667,0.2332288761183141,0.8037287761431874,0.4336805062547293,-0.246526237778444,-0.2373516601500691,0.3359581696309318,0.4871784712980038,0.07365393466652274,-0.1000395738965028,0.378976900863574,0.4304960047021689,-0.214323988257575,-0.1100680018677332,0.2908118414481127,-0.04611640432833637,-0.3698718336542312,-0.5514355175442611,-0.1081951237993983,801.4285714285714,800.6227106227107,801.025641025641,803.8461538461539,881.2087912087912,1212.820512820513,-0.396362,0.063110,0.919495,0.089722,-1.532745,0.089722,1,1,1,1,1,100.000000
2025-03-26 11:25:07.456,0.7860825979796413,-0.1791403786664667,0.2332288761183141,0.8037287761431874,0.4336805062547293,-0.246526237778444,-0.2373516601500691,0.3359581696309318,0.4871784712980038,0.07365393466652274,-0.1000395738965028,0.378976900863574,0.4304960047021689,-0.214323988257575,-0.1100680018677332,0.2908118414481127,-0.04611640432833637,-0.3698718336542312,-0.5514355175442611,-0.1081951237993983,801.025641025641,794.5787545787546,796.996336996337,799.4139194139194,923.5164835164835,948.4981684981685,-0.396362,0.063110,0.919495,0.089722,-1.532745,0.089722,1,1,1,1,1,100.000000
2025-03-26 11:25:07.457,0.7860825979796413,-0.1791403786664667,0.2332288761183141,0.8037287761431874,0.4336805062547293,-0.246526237778444,-0.2373516601500691,0.3359581696309318,0.4871784712980038,0.07365393466652274,-0.1000395738965028,0.378976900863574,0.4304960047021689,-0.214323988257575,-0.1100680018677332,0.2908118414481127,-0.04611640432833637,-0.3698718336542312,-0.5514355175442611,-0.1081951237993983,803.4432234432235,796.5934065934066,794.1758241758242,801.4285714285714,926.7399267399268,780.0732600732601,-0.396362,0.063110,0.919495,0.089722,-1.532745,0.089722,1,1,1,1,1,100.000000
2025-03-26 11:25:07.457,0.7860825979796413,-0.1791403786664667,0.2332288761183141,0.8037287761431874,0.4336805062547293,-0.246526237778444,-0.2373516601500691,0.3359581696309318,0.4871784712980038,0.07365393466652274,-0.1000395738965028,0.378976900863574,0.4304960047021689,-0.214323988257575,-0.1100680018677332,0.2908118414481127,-0.04611640432833637,-0.3698718336542312,-0.5514355175442611,-0.1081951237993983,805.4578754578755,799.4139194139194,799.0109890109891,805.8608058608058,883.6263736263736,735.3479853479854,-0.396362,0.063110,0.919495,0.089722,-1.532745,0.089722,1,1,1,1,1,100.000000
2025-03-26 11:25:07.457,0.7860825979796413,-0.1791403786664667,0.2332288761183141,0.8037287761431874,0.4336805062547293,-0.246526237778444,-0.2373516601500691,0.3359581696309318,0.4871784712980038,0.07365393466652274,-0.1000395738965028,0.378976900863574,0.4304960047021689,-0.214323988257575,-0.1100680018677332,0.2908118414481127,-0.04611640432833637,-0.3698718336542312,-0.5514355175442611,-0.1081951237993983,801.025641025641,804.2490842490843,802.6373626373627,807.4725274725275,893.2967032967033,757.1062271062272,-0.396362,0.063110,0.919495,0.089722,-1.532745,0.089722,1,1,1,1,1,100.000000
2025-03-26 11:25:07.458,0.7860825979796413,-0.1791403786664667,0.2332288761183141,0.8037287761431874,0.4336805062547293,-0.246526237778444,-0.2373516601500691,0.3359581696309318,0.4871784712980038,0.07365393466652274,-0.1000395738965028,0.378976900863574,0.4304960047021689,-0.214323988257575,-0.1100680018677332,0.2908118414481127,-0.04611640432833637,-0.3698718336542312,-0.5514355175442611,-0.1081951237993983,801.8315018315019,803.040293040293,800.2197802197802,803.8461538461539,886.4468864468864,615.2747252747253,-0.391357,0.061157,0.905273,0.904694,-0.986938,0.299072,1,1,1,1,1,100.000000
2025-03-26 11:25:07.458,0.7860825979796413,-0.1791403786664667,0.2332288761183141,0.8037287761431874,0.4336805062547293,-0.246526237778444,-0.2373516601500691,0.3359581696309318,0.4871784712980038,0.07365393466652274,-0.1000395738965028,0.378976900863574,0.4304960047021689,-0.214323988257575,-0.1100680018677332,0.2908118414481127,-0.04611640432833637,-0.3698718336542312,-0.5514355175442611,-0.1081951237993983,807.8754578754579,803.040293040293,801.025641025641,807.8754578754579,841.3186813186813,752.2710622710623,-0.391357,0.061157,0.905273,0.904694,-0.986938,0.299072,1,1,1,1,1,100.000000
2025-03-26 11:25:07.459,0.7860825979796413,-0.1791403786664667,0.2332288761183141,0.8037287761431874,0.4336805062547293,-0.246526237778444,-0.2373516601500691,0.3359581696309318,0.4871784712980038,0.07365393466652274,-0.1000395738965028,0.378976900863574,0.4304960047021689,-0.214323988257575,-0.1100680018677332,0.2908118414481127,-0.04611640432833637,-0.3698718336542312,-0.5514355175442611,-0.1081951237993983,809.4871794871796,805.0549450549451,802.6373626373627,811.9047619047619,826.8131868131868,941.2454212454213,-0.391357,0.061157,0.905273,0.904694,-0.986938,0.299072,1,1,1,1,1,100.000000
2025-03-26 11:25:07.459,0.7860825979796413,-0.1791403786664667,0.2332288761183141,0.8037287761431874,0.4336805062547293,-0.246526237778444,-0.2373516601500691,0.3359581696309318,0.4871784712980038,0.07365393466652274,-0.1000395738965028,0.378976900863574,0.4304960047021689,-0.214323988257575,-0.1100680018677332,0.2908118414481127,-0.04611640432833637,-0.3698718336542312,-0.5514355175442611,-0.1081951237993983,812.3076923076924,799.4139194139194,801.025641025641,809.4871794871796,816.7399267399268,722.0512820512821,-0.391357,0.061157,0.905273,0.904694,-0.986938,0.299072,1,1,1,1,1,100.000000
2025-03-26 11:25:07.459,0.7860825979796413,-0.1791403786664667,0.2332288761183141,0.8037287761431874,0.4336805062547293,-0.246526237778444,-0.2373516601500691,0.3359581696309318,0.4871784712980038,0.07365393466652274,-0.1000395738965028,0.378976900863574,0.4304960047021689,-0.214323988257575,-0.1100680018677332,0.2908118414481127,-0.04611640432833637,-0.3698718336542312,-0.5514355175442611,-0.1081951237993983,812.7106227106227,800.2197802197802,803.040293040293,808.2783882783883,760.7326007326008,565.3113553113553,-0.391357,0.061157,0.905273,0.904694,-0.986938,0.299072,1,1,1,1,1,100.000000
2025-03-26 11:25:07.459,0.7860825979796413,-0.1791403786664667,0.2332288761183141,0.8037287761431874,0.4336805062547293,-0.246526237778444,-0.2373516601500691,0.3359581696309318,0.4871784712980038,0.07365393466652274,-0.1000395738965028,0.378976900863574,0.4304960047021689,-0.214323988257575,-0.1100680018677332,0.2908118414481127,-0.04611640432833637,-0.3698718336542312,-0.5514355175442611,-0.1081951237993983,810.2930402930403,801.8315018315019,804.6520146520147,809.0842490842491,741.7948717948718,807.4725274725275,-0.391357,0.061157,0.905273,0.904694,-0.986938,0.299072,1,1,1,1,1,100.000000
2025-03-26 11:25:07.460,0.7860825979796413,-0.1791403786664667,0.2332288761183141,0.8037287761431874,0.4336805062547293,-0.246526237778444,-0.2373516601500691,0.3359581696309318,0.4871784712980038,0.07365393466652274,-0.1000395738965028,0.378976900863574,0.4304960047021689,-0.214323988257575,-0.1100680018677332,0.2908118414481127,-0.04611640432833637,-0.3698718336542312,-0.5514355175442611,-0.1081951237993983,808.6813186813187,802.2344322344322,800.2197802197802,809.8901098901099,804.2490842490843,1159.230769230769,-0.391357,0.061157,0.905273,0.904694,-0.986938,0.299072,1,1,1,1,1,100.000000
2025-03-26 11:25:07.460,0.7860825979796413,-0.1791403786664667,0.2332288761183141,0.8037287761431874,0.4336805062547293,-0.246526237778444,-0.2373516601500691,0.3359581696309318,0.4871784712980038,0.07365393466652274,-0.1000395738965028,0.378976900863574,0.4304960047021689,-0.214323988257575,-0.1100680018677332,0.2908118414481127,-0.04611640432833637,-0.3698718336542312,-0.5514355175442611,-0.1081951237993983,810.2930402930403,804.2490842490843,804.6520146520147,812.7106227106227,857.8388278388279,946.0805860805862,-0.391357,0.061157,0.905273,0.904694,-0.986938,0.299072,1,1,1,1,1,100.000000
2025-03-26 11:25:07.460,0.7860825979796413,-0.1791403786664667,0.2332288761183141,0.8037287761431874,0.4336805062547293,-0.246526237778444,-0.2373516601500691,0.3359581696309318,0.4871784712980038,0.07365393466652274,-0.1000395738965028,0.378976900863574,0.4304960047021689,-0.214323988257575,-0.1100680018677332,0.2908118414481127,-0.04611640432833637,-0.3698718336542312,-0.5514355175442611,-0.1081951237993983,809.8901098901099,801.4285714285714,807.0695970695971,808.6813186813187,887.6556776556777,765.5677655677656,-0.391357,0.061157,0.905273,0.904694,-0.986938,0.299072,1,1,1,1,1,100.000000
2025-03-26 11:25:07.460,0.7860825979796413,-0.1791403786664667,0.2332288761183141,0.8037287761431874,0.4336805062547293,-0.246526237778444,-0.2373516601500691,0.3359581696309318,0.4871784712980038,0.07365393466652274,-0.1000395738965028,0.378976900863574,0.4304960047021689,-0.214323988257575,-0.1100680018677332,0.2908118414481127,-0.04611640432833637,-0.3698718336542312,-0.5514355175442611,-0.1081951237993983,807.4725274725275,799.0109890109891,803.040293040293,803.4432234432235,852.1978021978023,731.3186813186813,-0.391357,0.061157,0.905273,0.904694,-0.986938,0.299072,1,1,1,1,1,100.000000
2025-03-26 11:25:07.461,0.7860825979796413,-0.1791403786664667,0.2332288761183141,0.8037287761431874,0.4336805062547293,-0.246526237778444,-0.2373516601500691,0.3359581696309318,0.4871784712980038,0.07365393466652274,-0.1000395738965028,0.378976900863574,0.4304960047021689,-0.214323988257575,-0.1100680018677332,0.2908118414481127,-0.04611640432833637,-0.3698718336542312,-0.5514355175442611,-0.1081951237993983,808.6813186813187,801.4285714285714,799.4139194139194,807.0695970695971,790.952380952381,655.1648351648352,-0.391357,0.061157,0.905273,0.904694,-0.986938,0.299072,1,1,1,1,1,100.000000
2025-03-26 11:25:07.461,0.7860825979796413,-0.1791403786664667,0.2332288761183141,0.8037287761431874,0.4336805062547293,-0.246526237778444,-0.2373516601500691,0.3359581696309318,0.4871784712980038,0.07365393466652274,-0.1000395738965028,0.378976900863574,0.4304960047021689,-0.214323988257575,-0.1100680018677332,0.2908118414481127,-0.04611640432833637,-0.3698718336542312,-0.5514355175442611,-0.1081951237993983,806.2637362637363,801.8315018315019,802.6373626373627,810.2930402930403,840.9157509157509,741.7948717948718,-0.391357,0.061157,0.905273,0.904694,-0.986938,0.299072,1,1,1,1,1,100.000000
2025-03-26 11:25:07.461,0.7860825979796413,-0.1791403786664667,0.2332288761183141,0.8037287761431874,0.4336805062547293,-0.246526237778444,-0.2373516601500691,0.3359581696309318,0.4871784712980038,0.07365393466652274,-0.1000395738965028,0.378976900863574,0.4304960047021689,-0.214323988257575,-0.1100680018677332,0.2908118414481127,-0.04611640432833637,-0.3698718336542312,-0.5514355175442611,-0.1081951237993983,809.0842490842491,801.4285714285714,808.6813186813187,807.0695970695971,870.7326007326008,680.952380952381,-0.391357,0.061157,0.905273,0.904694,-0.986938,0.299072,1,1,1,1,1,100.000000
2025-03-26 11:25:07.461,0.7860825979796413,-0.1791403786664667,0.2332288761183141,0.8037287761431874,0.4336805062547293,-0.246526237778444,-0.2373516601500691,0.3359581696309318,0.4871784712980038,0.07365393466652274,-0.1000395738965028,0.378976900863574,0.4304960047021689,-0.214323988257575,-0.1100680018677332,0.2908118414481127,-0.04611640432833637,-0.3698718336542312,-0.5514355175442611,-0.1081951237993983,813.919413919414,801.4285714285714,805.4578754578755,805.8608058608058,915.0549450549451,708.3516483516484,-0.391357,0.061157,0.905273,0.904694,-0.986938,0.299072,1,1,1,1,1,100.000000
2025-03-26 11:25:07.462,0.7860825979796413,-0.1791403786664667,0.2332288761183141,0.8037287761431874,0.4336805062547293,-0.246526237778444,-0.2373516601500691,0.3359581696309318,0.4871784712980038,0.07365393466652274,-0.1000395738965028,0.378976900863574,0.4304960047021689,-0.214323988257575,-0.1100680018677332,0.2908118414481127,-0.04611640432833637,-0.3698718336542312,-0.5514355175442611,-0.1081951237993983,806.2637362637363,799.0109890109891,801.025641025641,807.0695970695971,922.7106227106227,816.3369963369963,-0.391357,0.061157,0.905273,0.904694,-0.986938,0.299072,1,1,1,1,1,100.000000
2025-03-26 11:25:07.462,0.7860825979796413,-0.1791403786664667,0.2332288761183141,0.8037287761431874,0.4336805062547293,-0.246526237778444,-0.2373516601500691,0.3359581696309318,0.4871784712980038,0.07365393466652274,-0.1000395738965028,0.378976900863574,0.4304960047021689,-0.214323988257575,-0.1100680018677332,0.2908118414481127,-0.04611640432833637,-0.3698718336542312,-0.5514355175442611,-0.1081951237993983,800.2197802197802,796.5934065934066,801.025641025641,805.8608058608058,898.1318681318681,814.3223443223443,-0.391357,0.061157,0.905273,0.904694,-0.986938,0.299072,1,1,1,1,1,100.000000
2025-03-26 11:25:07.462,0.7860825979796413,-0.1791403786664667,0.2332288761183141,0.8037287761431874,0.4336805062547293,-0.246526237778444,-0.2373516601500691,0.3359581696309318,0.4871784712980038,0.07365393466652274,-0.1000395738965028,0.378976900863574,0.4304960047021689,-0.214323988257575,-0.1100680018677332,0.2908118414481127,-0.04611640432833637,-0.3698718336542312,-0.5514355175442611,-0.1081951237993983,805.0549450549451,797.8021978021978,803.040293040293,807.8754578754579,897.7289377289378,946.4835164835165,-0.391357,0.061157,0.905273,0.904694,-0.986938,0.299072,1,1,1,1,1,100.000000
2025-03-26 11:25:07.462,0.7860825979796413,-0.1791403786664667,0.2332288761183141,0.8037287761431874,0.4336805062547293,-0.246526237778444,-0.2373516601500691,0.3359581696309318,0.4871784712980038,0.07365393466652274,-0.1000395738965028,0.378976900863574,0.4304960047021689,-0.214323988257575,-0.1100680018677332,0.2908118414481127,-0.04611640432833637,-0.3698718336542312,-0.5514355175442611,-0.1081951237993983,802.2344322344322,801.025641025641,805.4578754578755,814.3223443223443,909.8168498168499,1118.131868131868,-0.391357,0.061157,0.905273,0.904694,-0.986938,0.299072,1,1,1,1,1,100.000000
2025-03-26 11:25:07.463,0.7860825979796413,-0.1791403786664667,0.2332288761183141,0.8037287761431874,0.4336805062547293,-0.246526237778444,-0.2373516601500691,0.3359581696309318,0.4871784712980038,0.07365393466652274,-0.1000395738965028,0.378976900863574,0.4304960047021689,-0.214323988257575,-0.1100680018677332,0.2908118414481127,-0.04611640432833637,-0.3698718336542312,-0.5514355175442611,-0.1081951237993983,803.040293040293,802.2344322344322,807.4725274725275,821.1721611721612,881.2087912087912,1048.424908424908,-0.391357,0.061157,0.905273,0.904694,-0.986938,0.299072,1,1,1,1,1,100.000000
2025-03-26 11:25:07.463,0.7568787202723748,-0.1657202132473489,0.2479694730157219,0.7225215541887772,0.4325519596978873,-0.2668043514734502,-0.1729965111326468,0.3335942175002838,0.4719525634852293,0.1226919099561594,-0.09680310413539202,0.3450816254863827,0.4073416880107208,-0.211456209852239,-0.1082648531045698,0.2509312244867256,-0.05569558227638209,-0.3939011944035408,-0.5441559846048053,-0.1194421476854276,811.5018315018315,800.2197802197802,804.2490842490843,818.7545787545788,839.7069597069598,1003.699633699634,-0.391357,0.061157,0.905273,0.904694,-0.986938,0.299072,1,1,1,1,1,100.000000
2025-03-26 11:25:07.464,0.7568787202723748,-0.1657202132473489,0.2479694730157219,0.7225215541887772,0.4325519596978873,-0.2668043514734502,-0.1729965111326468,0.3335942175002838,0.4719525634852293,0.1226919099561594,-0.09680310413539202,0.3450816254863827,0.4073416880107208,-0.211456209852239,-0.1082648531045698,0.2509312244867256,-0.05569558227638209,-0.3939011944035408,-0.5441559846048053,-0.1194421476854276,808.2783882783883,803.040293040293,802.6373626373627,815.934065934066,860.6593406593407,917.0695970695971,-0.391357,0.061157,0.905273,0.904694,-0.986938,0.299072,1,1,1,1,1,100.000000
2025-03-26 11:25:07.464,0.7568787202723748,-0.1657202132473489,0.2479694730157219,0.7225215541887772,0.4325519596978873,-0.2668043514734502,-0.1729965111326468,0.3335942175002838,0.4719525634852293,0.1226919099561594,-0.09680310413539202,0.3450816254863827,0.4073416880107208,-0.211456209852239,-0.1082648531045698,0.2509312244867256,-0.05569558227638209,-0.3939011944035408,-0.5441559846048053,-0.1194421476854276,796.1904761904763,800.6227106227107,797.8021978021978,809.4871794871796,858.6446886446887,657.5824175824176,-0.391357,0.061157,0.905273,0.904694,-0.986938,0.299072,1,1,1,1,1,100.000000
2025-03-26 11:25:07.464,0.7568787202723748,-0.1657202132473489,0.2479694730157219,0.7225215541887772,0.4325519596978873,-0.2668043514734502,-0.1729965111326468,0.3335942175002838,0.4719525634852293,0.1226919099561594,-0.09680310413539202,0.3450816254863827,0.4073416880107208,-0.211456209852239,-0.1082648531045698,0.2509312244867256,-0.05569558227638209,-0.3939011944035408,-0.5441559846048053,-0.1194421476854276,794.981684981685,799.8168498168499,793.3699633699634,803.040293040293,839.3040293040293,634.2124542124542,-0.391357,0.061157,0.905273,0.904694,-0.986938,0.299072,1,1,1,1,1,100.000000
2025-03-26 11:25:07.464,0.7568787202723748,-0.1657202132473489,0.2479694730157219,0.7225215541887772,0.4325519596978873,-0.2668043514734502,-0.1729965111326468,0.3335942175002838,0.4719525634852293,0.1226919099561594,-0.09680310413539202,0.3450816254863827,0.4073416880107208,-0.211456209852239,-0.1082648531045698,0.2509312244867256,-0.05569558227638209,-0.3939011944035408,-0.5441559846048053,-0.1194421476854276,803.8461538461539,802.6373626373627,798.6080586080586,813.1135531135532,811.9047619047619,672.893772893773,-0.391357,0.061157,0.905273,0.904694,-0.986938,0.299072,1,1,1,1,1,100.000000
2025-03-26 11:25:07.465,0.7568787202723748,-0.1657202132473489,0.2479694730157219,0.7225215541887772,0.4325519596978873,-0.2668043514734502,-0.1729965111326468,0.3335942175002838,0.4719525634852293,0.1226919099561594,-0.09680310413539202,0.3450816254863827,0.4073416880107208,-0.211456209852239,-0.1082648531045698,0.2509312244867256,-0.05569558227638209,-0.3939011944035408,-0.5441559846048053,-0.1194421476854276,805.4578754578755,798.2051282051282,801.8315018315019,816.3369963369963,785.7142857142858,583.8461538461538,-0.387329,0.061096,0.908569,0.590668,-1.398163,0.396271,1,1,1,1,1,100.000000
2025-03-26 11:25:07.465,0.7568787202723748,-0.1657202132473489,0.2479694730157219,0.7225215541887772,0.4325519596978873,-0.2668043514734502,-0.1729965111326468,0.3335942175002838,0.4719525634852293,0.1226919099561594,-0.09680310413539202,0.3450816254863827,0.4073416880107208,-0.211456209852239,-0.1082648531045698,0.2509312244867256,-0.05569558227638209,-0.3939011944035408,-0.5441559846048053,-0.1194421476854276,799.4139194139194,798.2051282051282,795.7875457875458,807.4725274725275,803.4432234432235,599.5604395604396,-0.387329,0.061096,0.908569,0.590668,-1.398163,0.396271,1,1,1,1,1,100.000000
2025-03-26 11:25:07.465,0.7568787202723748,-0.1657202132473489,0.2479694730157219,0.7225215541887772,0.4325519596978873,-0.2668043514734502,-0.1729965111326468,0.3335942175002838,0.4719525634852293,0.1226919099561594,-0.09680310413539202,0.3450816254863827,0.4073416880107208,-0.211456209852239,-0.1082648531045698,0.2509312244867256,-0.05569558227638209,-0.3939011944035408,-0.5441559846048053,-0.1194421476854276,804.2490842490843,801.8315018315019,795.7875457875458,804.6520146520147,848.974358974359,765.9706959706959,-0.387329,0.061096,0.908569,0.590668,-1.398163,0.396271,1,1,1,1,1,100.000000
2025-03-26 11:25:07.465,0.7568787202723748,-0.1657202132473489,0.2479694730157219,0.7225215541887772,0.4325519596978873,-0.2668043514734502,-0.1729965111326468,0.3335942175002838,0.4719525634852293,0.1226919099561594,-0.09680310413539202,0.3450816254863827,0.4073416880107208,-0.211456209852239,-0.1082648531045698,0.2509312244867256,-0.05569558227638209,-0.3939011944035408,-0.5441559846048053,-0.1194421476854276,814.7252747252747,803.040293040293,800.2197802197802,809.8901098901099,850.1831501831502,732.5274725274726,-0.387329,0.061096,0.908569,0.590668,-1.398163,0.396271,1,1,1,1,1,100.000000
2025-03-26 11:25:07.466,0.7568787202723748,-0.1657202132473489,0.2479694730157219,0.7225215541887772,0.4325519596978873,-0.2668043514734502,-0.1729965111326468,0.3335942175002838,0.4719525634852293,0.1226919099561594,-0.09680310413539202,0.3450816254863827,0.4073416880107208,-0.211456209852239,-0.1082648531045698,0.2509312244867256,-0.05569558227638209,-0.3939011944035408,-0.5441559846048053,-0.1194421476854276,820.3663003663004,805.4578754578755,801.4285714285714,815.934065934066,847.3626373626374,858.2417582417582,-0.387329,0.061096,0.908569,0.590668,-1.398163,0.396271,1,1,1,1,1,100.000000
2025-03-26 11:25:07.466,0.7568787202723748,-0.1657202132473489,0.2479694730157219,0.7225215541887772,0.4325519596978873,-0.2668043514734502,-0.1729965111326468,0.3335942175002838,0.4719525634852293,0.1226919099561594,-0.09680310413539202,0.3450816254863827,0.4073416880107208,-0.211456209852239,-0.1082648531045698,0.2509312244867256,-0.05569558227638209,-0.3939011944035408,-0.5441559846048053,-0.1194421476854276,812.7106227106227,803.4432234432235,800.2197802197802,813.5164835164835,867.1062271062272,1194.285714285714,-0.387329,0.061096,0.908569,0.590668,-1.398163,0.396271,1,1,1,1,1,100.000000
2025-03-26 11:25:07.466,0.7568787202723748,-0.1657202132473489,0.2479694730157219,0.7225215541887772,0.4325519596978873,-0.2668043514734502,-0.1729965111326468,0.3335942175002838,0.4719525634852293,0.1226919099561594,-0.09680310413539202,0.3450816254863827,0.4073416880107208,-0.211456209852239,-0.1082648531045698,0.2509312244867256,-0.05569558227638209,-0.3939011944035408,-0.5441559846048053,-0.1194421476854276,806.2637362637363,801.4285714285714,799.0109890109891,809.0842490842491,886.8498168498169,1216.446886446887,-0.387329,0.061096,0.908569,0.590668,-1.398163,0.396271,1,1,1,1,1,100.000000
