TimeStamp,Delta_TP9,Delta_AF7,Delta_AF8,Delta_TP10,Theta_TP9,Theta_AF7,Theta_AF8,Theta_TP10,Alpha_TP9,Alpha_AF7,Alpha_AF8,Alpha_TP10,Beta_TP9,Beta_AF7,Beta_AF8,Beta_TP10,Gamma_TP9,Gamma_AF7,Gamma_AF8,Gamma_TP10,RAW_TP9,RAW_AF7,RAW_AF8,RAW_TP10,AUX_RIGHT,AUX_LEFT,Accelerometer_X,Accelerometer_Y,Accelerometer_Z,Gyro_X,Gyro_Y,Gyro_Z,HeadBandOn,HSI_TP9,HSI_AF7,HSI_AF8,HSI_TP10,Battery,Elements
2025-03-27 12:58:41.717,,,,,,,,,,,,,,,,,,,,,,,,,,,,,,,,,,,,,,,/muse/event/connected MuseS-9CF6
2025-03-27 12:58:41.812,0.1019824333567249,0.00474302454173825,-0.4217572271342895,0.2290055924084861,-0.06464638018901449,-0.199964149885922,-0.5958262314563955,0.2106007368684776,1.322507037047546,0.1367864824044226,0.008262797410507968,1.367817500991658,0.06746815948702882,0.1062795117273719,-0.3557436193452783,0.2227248277853862,-0.2080611445409243,0.325539478146133,-0.5407054502041811,-0.2795481467343388,809.0842490842491,801.025641025641,799.8168498168499,801.8315018315019,756.7032967032967,676.1172161172161,-0.441162,0.030640,0.896240,0.605621,-0.000000,0.216827,1,1,1,1,1,97.000000
2025-03-27 12:58:41.813,0.1019824333567249,0.00474302454173825,-0.4217572271342895,0.2290055924084861,-0.06464638018901449,-0.199964149885922,-0.5958262314563955,0.2106007368684776,1.322507037047546,0.1367864824044226,0.008262797410507968,1.367817500991658,0.06746815948702882,0.1062795117273719,-0.3557436193452783,0.2227248277853862,-0.2080611445409243,0.325539478146133,-0.5407054502041811,-0.2795481467343388,802.2344322344322,797.3992673992674,798.2051282051282,798.6080586080586,747.032967032967,873.5531135531136,-0.441162,0.030640,0.896240,0.605621,-0.000000,0.216827,1,1,1,1,1,97.000000
2025-03-27 12:58:41.813,0.1019824333567249,0.00474302454173825,-0.4217572271342895,0.2290055924084861,-0.06464638018901449,-0.199964149885922,-0.5958262314563955,0.2106007368684776,1.322507037047546,0.1367864824044226,0.008262797410507968,1.367817500991658,0.06746815948702882,0.1062795117273719,-0.3557436193452783,0.2227248277853862,-0.2080611445409243,0.325539478146133,-0.5407054502041811,-0.2795481467343388,796.996336996337,793.7728937728938,797.3992673992674,796.5934065934066,735.7509157509157,699.0842490842491,-0.441162,0.030640,0.896240,0.605621,-0.000000,0.216827,1,1,1,1,1,97.000000
2025-03-27 12:58:41.813,0.1019824333567249,0.00474302454173825,-0.4217572271342895,0.2290055924084861,-0.06464638018901449,-0.199964149885922,-0.5958262314563955,0.2106007368684776,1.322507037047546,0.1367864824044226,0.008262797410507968,1.367817500991658,0.06746815948702882,0.1062795117273719,-0.3557436193452783,0.2227248277853862,-0.2080611445409243,0.325539478146133,-0.5407054502041811,-0.2795481467343388,796.5934065934066,799.0109890109891,795.7875457875458,793.3699633699634,768.7912087912088,613.6630036630037,-0.441162,0.030640,0.896240,0.605621,-0.000000,0.216827,1,1,1,1,1,97.000000
2025-03-27 12:58:41.814,0.1019824333567249,0.00474302454173825,-0.4217572271342895,0.2290055924084861,-0.06464638018901449,-0.199964149885922,-0.5958262314563955,0.2106007368684776,1.322507037047546,0.1367864824044226,0.008262797410507968,1.367817500991658,0.06746815948702882,0.1062795117273719,-0.3557436193452783,0.2227248277853862,-0.2080611445409243,0.325539478146133,-0.5407054502041811,-0.2795481467343388,796.1904761904763,800.2197802197802,801.8315018315019,792.5641025641025,834.8717948717949,690.6227106227107,-0.441162,0.030640,0.896240,0.605621,-0.000000,0.216827,1,1,1,1,1,97.000000
2025-03-27 12:58:41.814,0.1019824333567249,0.00474302454173825,-0.4217572271342895,0.2290055924084861,-0.06464638018901449,-0.199964149885922,-0.5958262314563955,0.2106007368684776,1.322507037047546,0.1367864824044226,0.008262797410507968,1.367817500991658,0.06746815948702882,0.1062795117273719,-0.3557436193452783,0.2227248277853862,-0.2080611445409243,0.325539478146133,-0.5407054502041811,-0.2795481467343388,790.5494505494506,803.040293040293,803.4432234432235,790.1465201465202,834.4688644688645,1096.373626373626,-0.441162,0.030640,0.896240,0.605621,-0.000000,0.216827,1,1,1,1,1,97.000000
2025-03-27 12:58:41.814,0.1019824333567249,0.00474302454173825,-0.4217572271342895,0.2290055924084861,-0.06464638018901449,-0.199964149885922,-0.5958262314563955,0.2106007368684776,1.322507037047546,0.1367864824044226,0.008262797410507968,1.367817500991658,0.06746815948702882,0.1062795117273719,-0.3557436193452783,0.2227248277853862,-0.2080611445409243,0.325539478146133,-0.5407054502041811,-0.2795481467343388,790.1465201465202,800.2197802197802,801.025641025641,788.9377289377289,856.2271062271062,1223.296703296703,-0.441162,0.030640,0.896240,0.605621,-0.000000,0.216827,1,1,1,1,1,97.000000
2025-03-27 12:58:41.814,0.1019824333567249,0.00474302454173825,-0.4217572271342895,0.2290055924084861,-0.06464638018901449,-0.199964149885922,-0.5958262314563955,0.2106007368684776,1.322507037047546,0.1367864824044226,0.008262797410507968,1.367817500991658,0.06746815948702882,0.1062795117273719,-0.3557436193452783,0.2227248277853862,-0.2080611445409243,0.325539478146133,-0.5407054502041811,-0.2795481467343388,792.1611721611722,794.5787545787546,801.4285714285714,789.3406593406594,838.901098901099,1062.124542124542,-0.441162,0.030640,0.896240,0.605621,-0.000000,0.216827,1,1,1,1,1,97.000000
2025-03-27 12:58:41.815,0.1019824333567249,0.00474302454173825,-0.4217572271342895,0.2290055924084861,-0.06464638018901449,-0.199964149885922,-0.5958262314563955,0.2106007368684776,1.322507037047546,0.1367864824044226,0.008262797410507968,1.367817500991658,0.06746815948702882,0.1062795117273719,-0.3557436193452783,0.2227248277853862,-0.2080611445409243,0.325539478146133,-0.5407054502041811,-0.2795481467343388,788.1318681318681,785.7142857142858,801.8315018315019,789.7435897435897,800.2197802197802,776.8498168498169,-0.441162,0.030640,0.896240,0.605621,-0.000000,0.216827,1,1,1,1,1,97.000000
2025-03-27 12:58:41.815,0.1019824333567249,0.00474302454173825,-0.4217572271342895,0.2290055924084861,-0.06464638018901449,-0.199964149885922,-0.5958262314563955,0.2106007368684776,1.322507037047546,0.1367864824044226,0.008262797410507968,1.367817500991658,0.06746815948702882,0.1062795117273719,-0.3557436193452783,0.2227248277853862,-0.2080611445409243,0.325539478146133,-0.5407054502041811,-0.2795481467343388,778.4615384615385,780.0732600732601,800.2197802197802,786.1172161172161,819.96336996337,622.1245421245421,-0.441162,0.030640,0.896240,0.605621,-0.000000,0.216827,1,1,1,1,1,97.000000
2025-03-27 12:58:41.815,0.1019824333567249,0.00474302454173825,-0.4217572271342895,0.2290055924084861,-0.06464638018901449,-0.199964149885922,-0.5958262314563955,0.2106007368684776,1.322507037047546,0.1367864824044226,0.008262797410507968,1.367817500991658,0.06746815948702882,0.1062795117273719,-0.3557436193452783,0.2227248277853862,-0.2080611445409243,0.325539478146133,-0.5407054502041811,-0.2795481467343388,777.6556776556777,788.5347985347986,797.8021978021978,784.9084249084249,832.0512820512821,675.7142857142858,-0.441162,0.030640,0.896240,0.605621,-0.000000,0.216827,1,1,1,1,1,97.000000
2025-03-27 12:58:41.815,0.1019824333567249,0.00474302454173825,-0.4217572271342895,0.2290055924084861,-0.06464638018901449,-0.199964149885922,-0.5958262314563955,0.2106007368684776,1.322507037047546,0.1367864824044226,0.008262797410507968,1.367817500991658,0.06746815948702882,0.1062795117273719,-0.3557436193452783,0.2227248277853862,-0.2080611445409243,0.325539478146133,-0.5407054502041811,-0.2795481467343388,783.2967032967033,802.6373626373627,799.4139194139194,792.967032967033,854.6153846153846,698.2783882783883,-0.441162,0.030640,0.896240,0.605621,-0.000000,0.216827,1,1,1,1,1,97.000000
2025-03-27 12:58:41.816,0.1019824333567249,0.00474302454173825,-0.4217572271342895,0.2290055924084861,-0.06464638018901449,-0.199964149885922,-0.5958262314563955,0.2106007368684776,1.322507037047546,0.1367864824044226,0.008262797410507968,1.367817500991658,0.06746815948702882,0.1062795117273719,-0.3557436193452783,0.2227248277853862,-0.2080611445409243,0.325539478146133,-0.5407054502041811,-0.2795481467343388,789.7435897435897,801.4285714285714,799.8168498168499,799.0109890109891,875.5677655677656,666.4468864468864,-0.443115,0.029663,0.894226,0.613098,-0.971985,0.366364,1,1,1,1,1,97.000000
2025-03-27 12:58:41.817,0.1019824333567249,0.00474302454173825,-0.4217572271342895,0.2290055924084861,-0.06464638018901449,-0.199964149885922,-0.5958262314563955,0.2106007368684776,1.322507037047546,0.1367864824044226,0.008262797410507968,1.367817500991658,0.06746815948702882,0.1062795117273719,-0.3557436193452783,0.2227248277853862,-0.2080611445409243,0.325539478146133,-0.5407054502041811,-0.2795481467343388,797.8021978021978,798.2051282051282,805.4578754578755,802.6373626373627,823.5897435897436,685.7875457875458,-0.443115,0.029663,0.894226,0.613098,-0.971985,0.366364,1,1,1,1,1,97.000000
2025-03-27 12:58:41.817,0.1019824333567249,0.00474302454173825,-0.4217572271342895,0.2290055924084861,-0.06464638018901449,-0.199964149885922,-0.5958262314563955,0.2106007368684776,1.322507037047546,0.1367864824044226,0.008262797410507968,1.367817500991658,0.06746815948702882,0.1062795117273719,-0.3557436193452783,0.2227248277853862,-0.2080611445409243,0.325539478146133,-0.5407054502041811,-0.2795481467343388,794.981684981685,797.8021978021978,803.8461538461539,801.8315018315019,783.6996336996338,691.4285714285714,-0.443115,0.029663,0.894226,0.613098,-0.971985,0.366364,1,1,1,1,1,97.000000
2025-03-27 12:58:41.817,0.1019824333567249,0.00474302454173825,-0.4217572271342895,0.2290055924084861,-0.06464638018901449,-0.199964149885922,-0.5958262314563955,0.2106007368684776,1.322507037047546,0.1367864824044226,0.008262797410507968,1.367817500991658,0.06746815948702882,0.1062795117273719,-0.3557436193452783,0.2227248277853862,-0.2080611445409243,0.325539478146133,-0.5407054502041811,-0.2795481467343388,793.7728937728938,799.4139194139194,799.8168498168499,801.8315018315019,841.3186813186813,781.2820512820513,-0.443115,0.029663,0.894226,0.613098,-0.971985,0.366364,1,1,1,1,1,97.000000
2025-03-27 12:58:41.817,0.1019824333567249,0.00474302454173825,-0.4217572271342895,0.2290055924084861,-0.06464638018901449,-0.199964149885922,-0.5958262314563955,0.2106007368684776,1.322507037047546,0.1367864824044226,0.008262797410507968,1.367817500991658,0.06746815948702882,0.1062795117273719,-0.3557436193452783,0.2227248277853862,-0.2080611445409243,0.325539478146133,-0.5407054502041811,-0.2795481467343388,794.981684981685,801.4285714285714,799.8168498168499,801.8315018315019,848.5714285714286,907.3992673992674,-0.443115,0.029663,0.894226,0.613098,-0.971985,0.366364,1,1,1,1,1,97.000000
2025-03-27 12:58:41.818,0.1065592517830202,0.0002090538841162592,-0.4237667439043138,0.2352958232911505,-0.0225049523593613,-0.2080230244176078,-0.5775204088038757,0.2325011909293127,1.322507037047546,0.146370609410659,0.03619948980070663,1.367817500991658,0.07122201551729528,0.1171676702271266,-0.3514796508951756,0.2305185336078208,-0.2023824152625391,0.313367167766132,-0.5297270645829106,-0.258858843846747,792.1611721611722,802.2344322344322,798.6080586080586,795.7875457875458,853.4065934065934,1060.915750915751,-0.443115,0.029663,0.894226,0.613098,-0.971985,0.366364,1,1,1,1,1,97.000000
2025-03-27 12:58:41.818,0.1065592517830202,0.0002090538841162592,-0.4237667439043138,0.2352958232911505,-0.0225049523593613,-0.2080230244176078,-0.5775204088038757,0.2325011909293127,1.322507037047546,0.146370609410659,0.03619948980070663,1.367817500991658,0.07122201551729528,0.1171676702271266,-0.3514796508951756,0.2305185336078208,-0.2023824152625391,0.313367167766132,-0.5297270645829106,-0.258858843846747,793.3699633699634,796.996336996337,794.981684981685,792.5641025641025,835.6776556776557,1158.021978021978,-0.443115,0.029663,0.894226,0.613098,-0.971985,0.366364,1,1,1,1,1,97.000000
2025-03-27 12:58:41.819,0.1065592517830202,0.0002090538841162592,-0.4237667439043138,0.2352958232911505,-0.0225049523593613,-0.2080230244176078,-0.5775204088038757,0.2325011909293127,1.322507037047546,0.146370609410659,0.03619948980070663,1.367817500991658,0.07122201551729528,0.1171676702271266,-0.3514796508951756,0.2305185336078208,-0.2023824152625391,0.313367167766132,-0.5297270645829106,-0.258858843846747,798.6080586080586,791.7582417582418,792.1611721611722,796.1904761904763,770.4029304029305,982.7472527472528,-0.443115,0.029663,0.894226,0.613098,-0.971985,0.366364,1,1,1,1,1,97.000000
2025-03-27 12:58:41.819,0.1065592517830202,0.0002090538841162592,-0.4237667439043138,0.2352958232911505,-0.0225049523593613,-0.2080230244176078,-0.5775204088038757,0.2325011909293127,1.322507037047546,0.146370609410659,0.03619948980070663,1.367817500991658,0.07122201551729528,0.1171676702271266,-0.3514796508951756,0.2305185336078208,-0.2023824152625391,0.313367167766132,-0.5297270645829106,-0.258858843846747,803.4432234432235,795.3846153846154,793.7728937728938,798.2051282051282,809.0842490842491,611.6483516483516,-0.443115,0.029663,0.894226,0.613098,-0.971985,0.366364,1,1,1,1,1,97.000000
2025-03-27 12:58:41.819,0.1065592517830202,0.0002090538841162592,-0.4237667439043138,0.2352958232911505,-0.0225049523593613,-0.2080230244176078,-0.5775204088038757,0.2325011909293127,1.322507037047546,0.146370609410659,0.03619948980070663,1.367817500991658,0.07122201551729528,0.1171676702271266,-0.3514796508951756,0.2305185336078208,-0.2023824152625391,0.313367167766132,-0.5297270645829106,-0.258858843846747,801.8315018315019,797.3992673992674,789.7435897435897,792.1611721611722,784.9084249084249,560.8791208791209,-0.443115,0.029663,0.894226,0.613098,-0.971985,0.366364,1,1,1,1,1,97.000000
2025-03-27 12:58:41.819,0.1065592517830202,0.0002090538841162592,-0.4237667439043138,0.2352958232911505,-0.0225049523593613,-0.2080230244176078,-0.5775204088038757,0.2325011909293127,1.322507037047546,0.146370609410659,0.03619948980070663,1.367817500991658,0.07122201551729528,0.1171676702271266,-0.3514796508951756,0.2305185336078208,-0.2023824152625391,0.313367167766132,-0.5297270645829106,-0.258858843846747,804.6520146520147,795.3846153846154,789.7435897435897,791.7582417582418,743.4065934065934,806.6666666666667,-0.443115,0.029663,0.894226,0.613098,-0.971985,0.366364,1,1,1,1,1,97.000000
2025-03-27 12:58:41.820,0.1065592517830202,0.0002090538841162592,-0.4237667439043138,0.2352958232911505,-0.0225049523593613,-0.2080230244176078,-0.5775204088038757,0.2325011909293127,1.322507037047546,0.146370609410659,0.03619948980070663,1.367817500991658,0.07122201551729528,0.1171676702271266,-0.3514796508951756,0.2305185336078208,-0.2023824152625391,0.313367167766132,-0.5297270645829106,-0.258858843846747,806.2637362637363,796.5934065934066,792.5641025641025,792.1611721611722,794.1758241758242,743.4065934065934,-0.443115,0.029663,0.894226,0.613098,-0.971985,0.366364,1,1,1,1,1,97.000000
2025-03-27 12:58:41.820,0.1065592517830202,0.0002090538841162592,-0.4237667439043138,0.2352958232911505,-0.0225049523593613,-0.2080230244176078,-0.5775204088038757,0.2325011909293127,1.322507037047546,0.146370609410659,0.03619948980070663,1.367817500991658,0.07122201551729528,0.1171676702271266,-0.3514796508951756,0.2305185336078208,-0.2023824152625391,0.313367167766132,-0.5297270645829106,-0.258858843846747,800.6227106227107,801.025641025641,791.7582417582418,789.7435897435897,809.4871794871796,772.4175824175825,-0.441467,0.033264,0.889954,0.770111,-0.800018,0.261688,1,1,1,1,1,97.000000
2025-03-27 12:58:41.820,0.1065592517830202,0.0002090538841162592,-0.4237667439043138,0.2352958232911505,-0.0225049523593613,-0.2080230244176078,-0.5775204088038757,0.2325011909293127,1.322507037047546,0.146370609410659,0.03619948980070663,1.367817500991658,0.07122201551729528,0.1171676702271266,-0.3514796508951756,0.2305185336078208,-0.2023824152625391,0.313367167766132,-0.5297270645829106,-0.258858843846747,800.2197802197802,790.1465201465202,791.3553113553114,792.1611721611722,780.0732600732601,869.5238095238095,-0.441467,0.033264,0.889954,0.770111,-0.800018,0.261688,1,1,1,1,1,97.000000
2025-03-27 12:58:41.820,0.1065592517830202,0.0002090538841162592,-0.4237667439043138,0.2352958232911505,-0.0225049523593613,-0.2080230244176078,-0.5775204088038757,0.2325011909293127,1.322507037047546,0.146370609410659,0.03619948980070663,1.367817500991658,0.07122201551729528,0.1171676702271266,-0.3514796508951756,0.2305185336078208,-0.2023824152625391,0.313367167766132,-0.5297270645829106,-0.258858843846747,803.040293040293,784.9084249084249,792.5641025641025,796.996336996337,809.8901098901099,682.967032967033,-0.441467,0.033264,0.889954,0.770111,-0.800018,0.261688,1,1,1,1,1,97.000000
2025-03-27 12:58:41.821,0.1065592517830202,0.0002090538841162592,-0.4237667439043138,0.2352958232911505,-0.0225049523593613,-0.2080230244176078,-0.5775204088038757,0.2325011909293127,1.322507037047546,0.146370609410659,0.03619948980070663,1.367817500991658,0.07122201551729528,0.1171676702271266,-0.3514796508951756,0.2305185336078208,-0.2023824152625391,0.313367167766132,-0.5297270645829106,-0.258858843846747,807.8754578754579,795.3846153846154,792.5641025641025,800.6227106227107,806.6666666666667,646.3003663003664,-0.441467,0.033264,0.889954,0.770111,-0.800018,0.261688,1,1,1,1,1,97.000000
2025-03-27 12:58:41.821,0.1065592517830202,0.0002090538841162592,-0.4237667439043138,0.2352958232911505,-0.0225049523593613,-0.2080230244176078,-0.5775204088038757,0.2325011909293127,1.322507037047546,0.146370609410659,0.03619948980070663,1.367817500991658,0.07122201551729528,0.1171676702271266,-0.3514796508951756,0.2305185336078208,-0.2023824152625391,0.313367167766132,-0.5297270645829106,-0.258858843846747,811.5018315018315,803.8461538461539,790.5494505494506,802.2344322344322,780.0732600732601,683.3699633699634,-0.441467,0.033264,0.889954,0.770111,-0.800018,0.261688,1,1,1,1,1,97.000000
2025-03-27 12:58:41.821,0.1065592517830202,0.0002090538841162592,-0.4237667439043138,0.2352958232911505,-0.0225049523593613,-0.2080230244176078,-0.5775204088038757,0.2325011909293127,1.322507037047546,0.146370609410659,0.03619948980070663,1.367817500991658,0.07122201551729528,0.1171676702271266,-0.3514796508951756,0.2305185336078208,-0.2023824152625391,0.313367167766132,-0.5297270645829106,-0.258858843846747,810.2930402930403,808.6813186813187,796.5934065934066,802.6373626373627,796.996336996337,950.5128205128206,-0.441467,0.033264,0.889954,0.770111,-0.800018,0.261688,1,1,1,1,1,97.000000
2025-03-27 12:58:41.821,0.1065592517830202,0.0002090538841162592,-0.4237667439043138,0.2352958232911505,-0.0225049523593613,-0.2080230244176078,-0.5775204088038757,0.2325011909293127,1.322507037047546,0.146370609410659,0.03619948980070663,1.367817500991658,0.07122201551729528,0.1171676702271266,-0.3514796508951756,0.2305185336078208,-0.2023824152625391,0.313367167766132,-0.5297270645829106,-0.258858843846747,802.6373626373627,799.4139194139194,802.6373626373627,806.6666666666667,816.3369963369963,1135.054945054945,-0.441467,0.033264,0.889954,0.770111,-0.800018,0.261688,1,1,1,1,1,97.000000
2025-03-27 12:58:41.822,0.1065592517830202,0.0002090538841162592,-0.4237667439043138,0.2352958232911505,-0.0225049523593613,-0.2080230244176078,-0.5775204088038757,0.2325011909293127,1.322507037047546,0.146370609410659,0.03619948980070663,1.367817500991658,0.07122201551729528,0.1171676702271266,-0.3514796508951756,0.2305185336078208,-0.2023824152625391,0.313367167766132,-0.5297270645829106,-0.258858843846747,796.996336996337,790.1465201465202,800.2197802197802,809.8901098901099,855.0183150183151,896.1172161172161,-0.441467,0.033264,0.889954,0.770111,-0.800018,0.261688,1,1,1,1,1,97.000000
2025-03-27 12:58:41.822,0.1065592517830202,0.0002090538841162592,-0.4237667439043138,0.2352958232911505,-0.0225049523593613,-0.2080230244176078,-0.5775204088038757,0.2325011909293127,1.322507037047546,0.146370609410659,0.03619948980070663,1.367817500991658,0.07122201551729528,0.1171676702271266,-0.3514796508951756,0.2305185336078208,-0.2023824152625391,0.313367167766132,-0.5297270645829106,-0.258858843846747,797.8021978021978,793.3699633699634,800.2197802197802,810.6959706959707,791.7582417582418,505.6776556776557,-0.441467,0.033264,0.889954,0.770111,-0.800018,0.261688,1,1,1,1,1,97.000000
2025-03-27 12:58:41.822,0.1065592517830202,0.0002090538841162592,-0.4237667439043138,0.2352958232911505,-0.0225049523593613,-0.2080230244176078,-0.5775204088038757,0.2325011909293127,1.322507037047546,0.146370609410659,0.03619948980070663,1.367817500991658,0.07122201551729528,0.1171676702271266,-0.3514796508951756,0.2305185336078208,-0.2023824152625391,0.313367167766132,-0.5297270645829106,-0.258858843846747,795.3846153846154,804.2490842490843,800.2197802197802,805.8608058608058,792.1611721611722,596.7399267399268,-0.441467,0.033264,0.889954,0.770111,-0.800018,0.261688,1,1,1,1,1,97.000000
2025-03-27 12:58:41.822,0.1065592517830202,0.0002090538841162592,-0.4237667439043138,0.2352958232911505,-0.0225049523593613,-0.2080230244176078,-0.5775204088038757,0.2325011909293127,1.322507037047546,0.146370609410659,0.03619948980070663,1.367817500991658,0.07122201551729528,0.1171676702271266,-0.3514796508951756,0.2305185336078208,-0.2023824152625391,0.313367167766132,-0.5297270645829106,-0.258858843846747,796.996336996337,802.6373626373627,803.4432234432235,805.4578754578755,887.2527472527473,769.1941391941392,-0.441467,0.033264,0.889954,0.770111,-0.800018,0.261688,1,1,1,1,1,97.000000
2025-03-27 12:58:41.823,0.1065592517830202,0.0002090538841162592,-0.4237667439043138,0.2352958232911505,-0.0225049523593613,-0.2080230244176078,-0.5775204088038757,0.2325011909293127,1.322507037047546,0.146370609410659,0.03619948980070663,1.367817500991658,0.07122201551729528,0.1171676702271266,-0.3514796508951756,0.2305185336078208,-0.2023824152625391,0.313367167766132,-0.5297270645829106,-0.258858843846747,804.2490842490843,797.3992673992674,805.8608058608058,808.6813186813187,929.5604395604396,806.6666666666667,-0.441467,0.033264,0.889954,0.770111,-0.800018,0.261688,1,1,1,1,1,97.000000
2025-03-27 12:58:41.823,0.1065592517830202,0.0002090538841162592,-0.4237667439043138,0.2352958232911505,-0.0225049523593613,-0.2080230244176078,-0.5775204088038757,0.2325011909293127,1.322507037047546,0.146370609410659,0.03619948980070663,1.367817500991658,0.07122201551729528,0.1171676702271266,-0.3514796508951756,0.2305185336078208,-0.2023824152625391,0.313367167766132,-0.5297270645829106,-0.258858843846747,802.6373626373627,803.040293040293,802.6373626373627,804.6520146520147,950.1098901098901,792.967032967033,-0.441467,0.033264,0.889954,0.770111,-0.800018,0.261688,1,1,1,1,1,97.000000
2025-03-27 12:58:41.824,0.1065592517830202,0.0002090538841162592,-0.4237667439043138,0.2352958232911505,-0.0225049523593613,-0.2080230244176078,-0.5775204088038757,0.2325011909293127,1.322507037047546,0.146370609410659,0.03619948980070663,1.367817500991658,0.07122201551729528,0.1171676702271266,-0.3514796508951756,0.2305185336078208,-0.2023824152625391,0.313367167766132,-0.5297270645829106,-0.258858843846747,798.6080586080586,807.8754578754579,800.6227106227107,801.4285714285714,913.8461538461539,828.021978021978,-0.441467,0.033264,0.889954,0.770111,-0.800018,0.261688,1,1,1,1,1,97.000000
2025-03-27 12:58:41.824,0.1065592517830202,0.0002090538841162592,-0.4237667439043138,0.2352958232911505,-0.0225049523593613,-0.2080230244176078,-0.5775204088038757,0.2325011909293127,1.322507037047546,0.146370609410659,0.03619948980070663,1.367817500991658,0.07122201551729528,0.1171676702271266,-0.3514796508951756,0.2305185336078208,-0.2023824152625391,0.313367167766132,-0.5297270645829106,-0.258858843846747,796.996336996337,807.8754578754579,797.3992673992674,797.8021978021978,938.8278388278388,1097.582417582418,-0.441467,0.033264,0.889954,0.770111,-0.800018,0.261688,1,1,1,1,1,97.000000
2025-03-27 12:58:41.824,0.1065592517830202,0.0002090538841162592,-0.4237667439043138,0.2352958232911505,-0.0225049523593613,-0.2080230244176078,-0.5775204088038757,0.2325011909293127,1.322507037047546,0.146370609410659,0.03619948980070663,1.367817500991658,0.07122201551729528,0.1171676702271266,-0.3514796508951756,0.2305185336078208,-0.2023824152625391,0.313367167766132,-0.5297270645829106,-0.258858843846747,795.7875457875458,793.3699633699634,794.1758241758242,790.952380952381,926.7399267399268,866.7032967032967,-0.441467,0.033264,0.889954,0.770111,-0.800018,0.261688,1,1,1,1,1,97.000000
2025-03-27 12:58:41.824,0.1065592517830202,0.0002090538841162592,-0.4237667439043138,0.2352958232911505,-0.0225049523593613,-0.2080230244176078,-0.5775204088038757,0.2325011909293127,1.322507037047546,0.146370609410659,0.03619948980070663,1.367817500991658,0.07122201551729528,0.1171676702271266,-0.3514796508951756,0.2305185336078208,-0.2023824152625391,0.313367167766132,-0.5297270645829106,-0.258858843846747,794.5787545787546,795.3846153846154,792.5641025641025,792.1611721611722,906.1904761904763,705.1282051282052,-0.441467,0.033264,0.889954,0.770111,-0.800018,0.261688,1,1,1,1,1,97.000000
2025-03-27 12:58:41.825,0.1065592517830202,0.0002090538841162592,-0.4237667439043138,0.2352958232911505,-0.0225049523593613,-0.2080230244176078,-0.5775204088038757,0.2325011909293127,1.322507037047546,0.146370609410659,0.03619948980070663,1.367817500991658,0.07122201551729528,0.1171676702271266,-0.3514796508951756,0.2305185336078208,-0.2023824152625391,0.313367167766132,-0.5297270645829106,-0.258858843846747,795.3846153846154,808.2783882783883,795.7875457875458,798.6080586080586,917.8754578754579,1082.271062271062,-0.441467,0.033264,0.889954,0.770111,-0.800018,0.261688,1,1,1,1,1,97.000000
2025-03-27 12:58:41.825,0.1065592517830202,0.0002090538841162592,-0.4237667439043138,0.2352958232911505,-0.0225049523593613,-0.2080230244176078,-0.5775204088038757,0.2325011909293127,1.322507037047546,0.146370609410659,0.03619948980070663,1.367817500991658,0.07122201551729528,0.1171676702271266,-0.3514796508951756,0.2305185336078208,-0.2023824152625391,0.313367167766132,-0.5297270645829106,-0.258858843846747,791.3553113553114,800.6227106227107,795.3846153846154,791.7582417582418,855.8241758241759,1158.021978021978,-0.441467,0.033264,0.889954,0.770111,-0.800018,0.261688,1,1,1,1,1,97.000000
2025-03-27 12:58:41.825,0.1139688406552362,0.01006043031682185,-0.399402033187591,0.2265361011598316,-0.002522760150722361,-0.2153852341167632,-0.5377402820230994,0.2489451677697249,1.322507037047546,0.1704363110319524,0.04287481889619949,1.367817500991658,0.07103793049930619,0.1184397093321419,-0.3518909120134092,0.2374372728123609,-0.1881442364594546,0.2957122676116803,-0.5150239479940878,-0.2389872914653622,792.1611721611722,785.7142857142858,790.5494505494506,789.3406593406594,829.2307692307693,835.6776556776557,-0.441467,0.033264,0.889954,0.770111,-0.800018,0.261688,1,1,1,1,1,97.000000
2025-03-27 12:58:41.826,0.1139688406552362,0.01006043031682185,-0.399402033187591,0.2265361011598316,-0.002522760150722361,-0.2153852341167632,-0.5377402820230994,0.2489451677697249,1.322507037047546,0.1704363110319524,0.04287481889619949,1.367817500991658,0.07103793049930619,0.1184397093321419,-0.3518909120134092,0.2374372728123609,-0.1881442364594546,0.2957122676116803,-0.5150239479940878,-0.2389872914653622,797.8021978021978,782.893772893773,792.5641025641025,792.5641025641025,836.8864468864469,559.6703296703297,-0.441467,0.033264,0.889954,0.770111,-0.800018,0.261688,1,1,1,1,1,97.000000
2025-03-27 12:58:41.826,0.1139688406552362,0.01006043031682185,-0.399402033187591,0.2265361011598316,-0.002522760150722361,-0.2153852341167632,-0.5377402820230994,0.2489451677697249,1.322507037047546,0.1704363110319524,0.04287481889619949,1.367817500991658,0.07103793049930619,0.1184397093321419,-0.3518909120134092,0.2374372728123609,-0.1881442364594546,0.2957122676116803,-0.5150239479940878,-0.2389872914653622,799.4139194139194,796.996336996337,796.1904761904763,795.7875457875458,814.3223443223443,612.0512820512821,-0.441467,0.033264,0.889954,0.770111,-0.800018,0.261688,1,1,1,1,1,97.000000
2025-03-27 12:58:41.826,0.1139688406552362,0.01006043031682185,-0.399402033187591,0.2265361011598316,-0.002522760150722361,-0.2153852341167632,-0.5377402820230994,0.2489451677697249,1.322507037047546,0.1704363110319524,0.04287481889619949,1.367817500991658,0.07103793049930619,0.1184397093321419,-0.3518909120134092,0.2374372728123609,-0.1881442364594546,0.2957122676116803,-0.5150239479940878,-0.2389872914653622,799.4139194139194,796.1904761904763,797.8021978021978,798.6080586080586,814.3223443223443,676.1172161172161,-0.441467,0.033264,0.889954,0.770111,-0.800018,0.261688,1,1,1,1,1,97.000000
2025-03-27 12:58:41.827,0.1139688406552362,0.01006043031682185,-0.399402033187591,0.2265361011598316,-0.002522760150722361,-0.2153852341167632,-0.5377402820230994,0.2489451677697249,1.322507037047546,0.1704363110319524,0.04287481889619949,1.367817500991658,0.07103793049930619,0.1184397093321419,-0.3518909120134092,0.2374372728123609,-0.1881442364594546,0.2957122676116803,-0.5150239479940878,-0.2389872914653622,799.8168498168499,794.5787545787546,796.996336996337,799.0109890109891,869.1208791208792,685.7875457875458,-0.441467,0.033264,0.889954,0.770111,-0.800018,0.261688,1,1,1,1,1,97.000000
2025-03-27 12:58:41.827,0.1139688406552362,0.01006043031682185,-0.399402033187591,0.2265361011598316,-0.002522760150722361,-0.2153852341167632,-0.5377402820230994,0.2489451677697249,1.322507037047546,0.1704363110319524,0.04287481889619949,1.367817500991658,0.07103793049930619,0.1184397093321419,-0.3518909120134092,0.2374372728123609,-0.1881442364594546,0.2957122676116803,-0.5150239479940878,-0.2389872914653622,805.4578754578755,804.6520146520147,801.025641025641,800.6227106227107,904.981684981685,951.7216117216118,-0.439514,0.045837,0.889771,0.785065,0.239258,0.553284,1,1,1,1,1,97.000000
2025-03-27 12:58:41.827,0.1139688406552362,0.01006043031682185,-0.399402033187591,0.2265361011598316,-0.002522760150722361,-0.2153852341167632,-0.5377402820230994,0.2489451677697249,1.322507037047546,0.1704363110319524,0.04287481889619949,1.367817500991658,0.07103793049930619,0.1184397093321419,-0.3518909120134092,0.2374372728123609,-0.1881442364594546,0.2957122676116803,-0.5150239479940878,-0.2389872914653622,811.9047619047619,799.4139194139194,800.6227106227107,803.040293040293,844.5421245421246,970.6593406593407,-0.439514,0.045837,0.889771,0.785065,0.239258,0.553284,1,1,1,1,1,97.000000
2025-03-27 12:58:41.828,0.1139688406552362,0.01006043031682185,-0.399402033187591,0.2265361011598316,-0.002522760150722361,-0.2153852341167632,-0.5377402820230994,0.2489451677697249,1.322507037047546,0.1704363110319524,0.04287481889619949,1.367817500991658,0.07103793049930619,0.1184397093321419,-0.3518909120134092,0.2374372728123609,-0.1881442364594546,0.2957122676116803,-0.5150239479940878,-0.2389872914653622,813.1135531135532,795.7875457875458,798.2051282051282,803.8461538461539,831.6483516483516,740.989010989011,-0.439514,0.045837,0.889771,0.785065,0.239258,0.553284,1,1,1,1,1,97.000000
2025-03-27 12:58:41.828,0.1139688406552362,0.01006043031682185,-0.399402033187591,0.2265361011598316,-0.002522760150722361,-0.2153852341167632,-0.5377402820230994,0.2489451677697249,1.322507037047546,0.1704363110319524,0.04287481889619949,1.367817500991658,0.07103793049930619,0.1184397093321419,-0.3518909120134092,0.2374372728123609,-0.1881442364594546,0.2957122676116803,-0.5150239479940878,-0.2389872914653622,813.1135531135532,794.1758241758242,798.2051282051282,806.6666666666667,810.2930402930403,624.5421245421246,-0.439514,0.045837,0.889771,0.785065,0.239258,0.553284,1,1,1,1,1,97.000000
2025-03-27 12:58:41.828,0.1139688406552362,0.01006043031682185,-0.399402033187591,0.2265361011598316,-0.002522760150722361,-0.2153852341167632,-0.5377402820230994,0.2489451677697249,1.322507037047546,0.1704363110319524,0.04287481889619949,1.367817500991658,0.07103793049930619,0.1184397093321419,-0.3518909120134092,0.2374372728123609,-0.1881442364594546,0.2957122676116803,-0.5150239479940878,-0.2389872914653622,813.5164835164835,794.5787545787546,798.2051282051282,810.2930402930403,796.5934065934066,606.8131868131868,-0.439514,0.045837,0.889771,0.785065,0.239258,0.553284,1,1,1,1,1,97.000000
2025-03-27 12:58:41.828,0.1139688406552362,0.01006043031682185,-0.399402033187591,0.2265361011598316,-0.002522760150722361,-0.2153852341167632,-0.5377402820230994,0.2489451677697249,1.322507037047546,0.1704363110319524,0.04287481889619949,1.367817500991658,0.07103793049930619,0.1184397093321419,-0.3518909120134092,0.2374372728123609,-0.1881442364594546,0.2957122676116803,-0.5150239479940878,-0.2389872914653622,815.1282051282052,809.8901098901099,800.2197802197802,812.7106227106227,814.7252747252747,892.893772893773,-0.439514,0.045837,0.889771,0.785065,0.239258,0.553284,1,1,1,1,1,97.000000
2025-03-27 12:58:41.829,0.1139688406552362,0.01006043031682185,-0.399402033187591,0.2265361011598316,-0.002522760150722361,-0.2153852341167632,-0.5377402820230994,0.2489451677697249,1.322507037047546,0.1704363110319524,0.04287481889619949,1.367817500991658,0.07103793049930619,0.1184397093321419,-0.3518909120134092,0.2374372728123609,-0.1881442364594546,0.2957122676116803,-0.5150239479940878,-0.2389872914653622,811.9047619047619,807.0695970695971,801.025641025641,814.3223443223443,768.7912087912088,1081.465201465202,-0.439514,0.045837,0.889771,0.785065,0.239258,0.553284,1,1,1,1,1,97.000000
2025-03-27 12:58:41.829,0.1139688406552362,0.01006043031682185,-0.399402033187591,0.2265361011598316,-0.002522760150722361,-0.2153852341167632,-0.5377402820230994,0.2489451677697249,1.322507037047546,0.1704363110319524,0.04287481889619949,1.367817500991658,0.07103793049930619,0.1184397093321419,-0.3518909120134092,0.2374372728123609,-0.1881442364594546,0.2957122676116803,-0.5150239479940878,-0.2389872914653622,810.6959706959707,791.7582417582418,796.5934065934066,814.7252747252747,774.8351648351648,1091.135531135531,-0.439514,0.045837,0.889771,0.785065,0.239258,0.553284,1,1,1,1,1,97.000000
2025-03-27 12:58:41.829,0.1139688406552362,0.01006043031682185,-0.399402033187591,0.2265361011598316,-0.002522760150722361,-0.2153852341167632,-0.5377402820230994,0.2489451677697249,1.322507037047546,0.1704363110319524,0.04287481889619949,1.367817500991658,0.07103793049930619,0.1184397093321419,-0.3518909120134092,0.2374372728123609,-0.1881442364594546,0.2957122676116803,-0.5150239479940878,-0.2389872914653622,810.6959706959707,779.2673992673992,795.3846153846154,812.7106227106227,875.9706959706959,750.2564102564103,-0.439514,0.045837,0.889771,0.785065,0.239258,0.553284,1,1,1,1,1,97.000000
2025-03-27 12:58:41.829,0.1139688406552362,0.01006043031682185,-0.399402033187591,0.2265361011598316,-0.002522760150722361,-0.2153852341167632,-0.5377402820230994,0.2489451677697249,1.322507037047546,0.1704363110319524,0.04287481889619949,1.367817500991658,0.07103793049930619,0.1184397093321419,-0.3518909120134092,0.2374372728123609,-0.1881442364594546,0.2957122676116803,-0.5150239479940878,-0.2389872914653622,801.4285714285714,791.3553113553114,793.3699633699634,805.8608058608058,883.2234432234433,616.4835164835165,-0.439514,0.045837,0.889771,0.785065,0.239258,0.553284,1,1,1,1,1,97.000000
2025-03-27 12:58:41.830,0.1139688406552362,0.01006043031682185,-0.399402033187591,0.2265361011598316,-0.002522760150722361,-0.2153852341167632,-0.5377402820230994,0.2489451677697249,1.322507037047546,0.1704363110319524,0.04287481889619949,1.367817500991658,0.07103793049930619,0.1184397093321419,-0.3518909120134092,0.2374372728123609,-0.1881442364594546,0.2957122676116803,-0.5150239479940878,-0.2389872914653622,803.8461538461539,804.2490842490843,791.3553113553114,803.040293040293,893.6996336996338,736.5567765567765,-0.439514,0.045837,0.889771,0.785065,0.239258,0.553284,1,1,1,1,1,97.000000
2025-03-27 12:58:41.830,0.1139688406552362,0.01006043031682185,-0.399402033187591,0.2265361011598316,-0.002522760150722361,-0.2153852341167632,-0.5377402820230994,0.2489451677697249,1.322507037047546,0.1704363110319524,0.04287481889619949,1.367817500991658,0.07103793049930619,0.1184397093321419,-0.3518909120134092,0.2374372728123609,-0.1881442364594546,0.2957122676116803,-0.5150239479940878,-0.2389872914653622,809.0842490842491,799.8168498168499,794.981684981685,799.8168498168499,897.7289377289378,716.007326007326,-0.439514,0.045837,0.889771,0.785065,0.239258,0.553284,1,1,1,1,1,97.000000
2025-03-27 12:58:41.831,0.1139688406552362,0.01006043031682185,-0.399402033187591,0.2265361011598316,-0.002522760150722361,-0.2153852341167632,-0.5377402820230994,0.2489451677697249,1.322507037047546,0.1704363110319524,0.04287481889619949,1.367817500991658,0.07103793049930619,0.1184397093321419,-0.3518909120134092,0.2374372728123609,-0.1881442364594546,0.2957122676116803,-0.5150239479940878,-0.2389872914653622,801.4285714285714,794.1758241758242,794.1758241758242,791.7582417582418,814.3223443223443,594.3223443223443,-0.441589,0.041931,0.887695,0.276642,-0.052338,0.381317,1,1,1,1,1,97.000000
2025-03-27 12:58:41.831,0.1139688406552362,0.01006043031682185,-0.399402033187591,0.2265361011598316,-0.002522760150722361,-0.2153852341167632,-0.5377402820230994,0.2489451677697249,1.322507037047546,0.1704363110319524,0.04287481889619949,1.367817500991658,0.07103793049930619,0.1184397093321419,-0.3518909120134092,0.2374372728123609,-0.1881442364594546,0.2957122676116803,-0.5150239479940878,-0.2389872914653622,799.0109890109891,801.8315018315019,794.1758241758242,793.7728937728938,821.978021978022,660,-0.441589,0.041931,0.887695,0.276642,-0.052338,0.381317,1,1,1,1,1,97.000000
2025-03-27 12:58:41.831,0.1139688406552362,0.01006043031682185,-0.399402033187591,0.2265361011598316,-0.002522760150722361,-0.2153852341167632,-0.5377402820230994,0.2489451677697249,1.322507037047546,0.1704363110319524,0.04287481889619949,1.367817500991658,0.07103793049930619,0.1184397093321419,-0.3518909120134092,0.2374372728123609,-0.1881442364594546,0.2957122676116803,-0.5150239479940878,-0.2389872914653622,796.1904761904763,805.8608058608058,793.7728937728938,795.7875457875458,873.956043956044,782.4908424908425,-0.441589,0.041931,0.887695,0.276642,-0.052338,0.381317,1,1,1,1,1,97.000000
2025-03-27 12:58:41.831,0.1139688406552362,0.01006043031682185,-0.399402033187591,0.2265361011598316,-0.002522760150722361,-0.2153852341167632,-0.5377402820230994,0.2489451677697249,1.322507037047546,0.1704363110319524,0.04287481889619949,1.367817500991658,0.07103793049930619,0.1184397093321419,-0.3518909120134092,0.2374372728123609,-0.1881442364594546,0.2957122676116803,-0.5150239479940878,-0.2389872914653622,791.7582417582418,796.5934065934066,790.952380952381,790.5494505494506,856.6300366300367,724.4688644688645,-0.441589,0.041931,0.887695,0.276642,-0.052338,0.381317,1,1,1,1,1,97.000000
2025-03-27 12:58:41.832,0.1139688406552362,0.01006043031682185,-0.399402033187591,0.2265361011598316,-0.002522760150722361,-0.2153852341167632,-0.5377402820230994,0.2489451677697249,1.322507037047546,0.1704363110319524,0.04287481889619949,1.367817500991658,0.07103793049930619,0.1184397093321419,-0.3518909120134092,0.2374372728123609,-0.1881442364594546,0.2957122676116803,-0.5150239479940878,-0.2389872914653622,788.5347985347986,788.5347985347986,790.952380952381,783.2967032967033,801.4285714285714,607.2161172161173,-0.441589,0.041931,0.887695,0.276642,-0.052338,0.381317,1,1,1,1,1,97.000000
2025-03-27 12:58:41.832,0.1139688406552362,0.01006043031682185,-0.399402033187591,0.2265361011598316,-0.002522760150722361,-0.2153852341167632,-0.5377402820230994,0.2489451677697249,1.322507037047546,0.1704363110319524,0.04287481889619949,1.367817500991658,0.07103793049930619,0.1184397093321419,-0.3518909120134092,0.2374372728123609,-0.1881442364594546,0.2957122676116803,-0.5150239479940878,-0.2389872914653622,786.9230769230769,802.6373626373627,792.5641025641025,784.5054945054945,764.3589743589744,933.1868131868132,-0.441589,0.041931,0.887695,0.276642,-0.052338,0.381317,1,1,1,1,1,97.000000
2025-03-27 12:58:41.832,0.1139688406552362,0.01006043031682185,-0.399402033187591,0.2265361011598316,-0.002522760150722361,-0.2153852341167632,-0.5377402820230994,0.2489451677697249,1.322507037047546,0.1704363110319524,0.04287481889619949,1.367817500991658,0.07103793049930619,0.1184397093321419,-0.3518909120134092,0.2374372728123609,-0.1881442364594546,0.2957122676116803,-0.5150239479940878,-0.2389872914653622,788.9377289377289,805.4578754578755,793.3699633699634,791.7582417582418,736.1538461538462,1113.699633699634,-0.441589,0.041931,0.887695,0.276642,-0.052338,0.381317,1,1,1,1,1,97.000000
2025-03-27 12:58:41.832,0.1139688406552362,0.01006043031682185,-0.399402033187591,0.2265361011598316,-0.002522760150722361,-0.2153852341167632,-0.5377402820230994,0.2489451677697249,1.322507037047546,0.1704363110319524,0.04287481889619949,1.367817500991658,0.07103793049930619,0.1184397093321419,-0.3518909120134092,0.2374372728123609,-0.1881442364594546,0.2957122676116803,-0.5150239479940878,-0.2389872914653622,791.3553113553114,790.952380952381,787.7289377289378,794.5787545787546,786.1172161172161,797.8021978021978,-0.441589,0.041931,0.887695,0.276642,-0.052338,0.381317,1,1,1,1,1,97.000000
2025-03-27 12:58:41.833,0.1139688406552362,0.01006043031682185,-0.399402033187591,0.2265361011598316,-0.002522760150722361,-0.2153852341167632,-0.5377402820230994,0.2489451677697249,1.322507037047546,0.1704363110319524,0.04287481889619949,1.367817500991658,0.07103793049930619,0.1184397093321419,-0.3518909120134092,0.2374372728123609,-0.1881442364594546,0.2957122676116803,-0.5150239479940878,-0.2389872914653622,796.996336996337,797.8021978021978,787.7289377289378,799.8168498168499,818.7545787545788,761.941391941392,-0.441589,0.041931,0.887695,0.276642,-0.052338,0.381317,1,1,1,1,1,97.000000
2025-03-27 12:58:41.833,0.1274574106026136,0.02761687910442531,-0.340950068939587,0.2100554662057187,0.001112722634302571,-0.2228099984405825,-0.494054888981752,0.2740177102616207,1.322507037047546,0.1788538622434415,0.04720727986544512,1.367817500991658,0.07463563645351241,0.1130730026550373,-0.3490271840467188,0.244420130809577,-0.1683607419587806,0.2762009411043803,-0.5021765906760487,-0.2215759704478025,797.3992673992674,800.6227106227107,790.5494505494506,802.6373626373627,781.6849816849817,850.989010989011,-0.441589,0.041931,0.887695,0.276642,-0.052338,0.381317,1,1,1,1,1,97.000000
2025-03-27 12:58:41.834,0.1274574106026136,0.02761687910442531,-0.340950068939587,0.2100554662057187,0.001112722634302571,-0.2228099984405825,-0.494054888981752,0.2740177102616207,1.322507037047546,0.1788538622434415,0.04720727986544512,1.367817500991658,0.07463563645351241,0.1130730026550373,-0.3490271840467188,0.244420130809577,-0.1683607419587806,0.2762009411043803,-0.5021765906760487,-0.2215759704478025,783.2967032967033,790.952380952381,793.3699633699634,795.7875457875458,787.7289377289378,808.6813186813187,-0.441589,0.041931,0.887695,0.276642,-0.052338,0.381317,1,1,1,1,1,97.000000
2025-03-27 12:58:41.834,0.1274574106026136,0.02761687910442531,-0.340950068939587,0.2100554662057187,0.001112722634302571,-0.2228099984405825,-0.494054888981752,0.2740177102616207,1.322507037047546,0.1788538622434415,0.04720727986544512,1.367817500991658,0.07463563645351241,0.1130730026550373,-0.3490271840467188,0.244420130809577,-0.1683607419587806,0.2762009411043803,-0.5021765906760487,-0.2215759704478025,785.7142857142858,783.2967032967033,798.6080586080586,797.8021978021978,761.1355311355312,616.080586080586,-0.441589,0.041931,0.887695,0.276642,-0.052338,0.381317,1,1,1,1,1,97.000000
2025-03-27 12:58:41.834,0.1274574106026136,0.02761687910442531,-0.340950068939587,0.2100554662057187,0.001112722634302571,-0.2228099984405825,-0.494054888981752,0.2740177102616207,1.322507037047546,0.1788538622434415,0.04720727986544512,1.367817500991658,0.07463563645351241,0.1130730026550373,-0.3490271840467188,0.244420130809577,-0.1683607419587806,0.2762009411043803,-0.5021765906760487,-0.2215759704478025,794.981684981685,790.952380952381,804.2490842490843,805.8608058608058,870.7326007326008,808.6813186813187,-0.440735,0.044189,0.890747,0.770111,0.478516,-0.441132,1,1,1,1,1,97.000000
2025-03-27 12:58:41.834,0.1274574106026136,0.02761687910442531,-0.340950068939587,0.2100554662057187,0.001112722634302571,-0.2228099984405825,-0.494054888981752,0.2740177102616207,1.322507037047546,0.1788538622434415,0.04720727986544512,1.367817500991658,0.07463563645351241,0.1130730026550373,-0.3490271840467188,0.244420130809577,-0.1683607419587806,0.2762009411043803,-0.5021765906760487,-0.2215759704478025,790.1465201465202,783.6996336996338,801.4285714285714,801.025641025641,881.6117216117217,1021.025641025641,-0.440735,0.044189,0.890747,0.770111,0.478516,-0.441132,1,1,1,1,1,97.000000
2025-03-27 12:58:41.835,0.1274574106026136,0.02761687910442531,-0.340950068939587,0.2100554662057187,0.001112722634302571,-0.2228099984405825,-0.494054888981752,0.2740177102616207,1.322507037047546,0.1788538622434415,0.04720727986544512,1.367817500991658,0.07463563645351241,0.1130730026550373,-0.3490271840467188,0.244420130809577,-0.1683607419587806,0.2762009411043803,-0.5021765906760487,-0.2215759704478025,793.7728937728938,784.5054945054945,795.3846153846154,800.6227106227107,832.8571428571429,763.5531135531136,-0.440735,0.044189,0.890747,0.770111,0.478516,-0.441132,1,1,1,1,1,97.000000
2025-03-27 12:58:41.835,0.1274574106026136,0.02761687910442531,-0.340950068939587,0.2100554662057187,0.001112722634302571,-0.2228099984405825,-0.494054888981752,0.2740177102616207,1.322507037047546,0.1788538622434415,0.04720727986544512,1.367817500991658,0.07463563645351241,0.1130730026550373,-0.3490271840467188,0.244420130809577,-0.1683607419587806,0.2762009411043803,-0.5021765906760487,-0.2215759704478025,799.4139194139194,797.3992673992674,794.5787545787546,805.8608058608058,868.3150183150184,705.5311355311355,-0.440735,0.044189,0.890747,0.770111,0.478516,-0.441132,1,1,1,1,1,97.000000
2025-03-27 12:58:41.835,0.1274574106026136,0.02761687910442531,-0.340950068939587,0.2100554662057187,0.001112722634302571,-0.2228099984405825,-0.494054888981752,0.2740177102616207,1.322507037047546,0.1788538622434415,0.04720727986544512,1.367817500991658,0.07463563645351241,0.1130730026550373,-0.3490271840467188,0.244420130809577,-0.1683607419587806,0.2762009411043803,-0.5021765906760487,-0.2215759704478025,796.996336996337,790.5494505494506,796.1904761904763,805.4578754578755,815.5311355311355,618.4981684981685,-0.440735,0.044189,0.890747,0.770111,0.478516,-0.441132,1,1,1,1,1,97.000000
2025-03-27 12:58:41.835,0.1274574106026136,0.02761687910442531,-0.340950068939587,0.2100554662057187,0.001112722634302571,-0.2228099984405825,-0.494054888981752,0.2740177102616207,1.322507037047546,0.1788538622434415,0.04720727986544512,1.367817500991658,0.07463563645351241,0.1130730026550373,-0.3490271840467188,0.244420130809577,-0.1683607419587806,0.2762009411043803,-0.5021765906760487,-0.2215759704478025,799.0109890109891,796.1904761904763,795.3846153846154,802.6373626373627,792.5641025641025,895.7142857142858,-0.440735,0.044189,0.890747,0.770111,0.478516,-0.441132,1,1,1,1,1,97.000000
2025-03-27 12:58:41.836,0.1274574106026136,0.02761687910442531,-0.340950068939587,0.2100554662057187,0.001112722634302571,-0.2228099984405825,-0.494054888981752,0.2740177102616207,1.322507037047546,0.1788538622434415,0.04720727986544512,1.367817500991658,0.07463563645351241,0.1130730026550373,-0.3490271840467188,0.244420130809577,-0.1683607419587806,0.2762009411043803,-0.5021765906760487,-0.2215759704478025,806.2637362637363,799.4139194139194,794.981684981685,801.4285714285714,787.3260073260074,1150.769230769231,-0.440735,0.044189,0.890747,0.770111,0.478516,-0.441132,1,1,1,1,1,97.000000
2025-03-27 12:58:41.836,0.1274574106026136,0.02761687910442531,-0.340950068939587,0.2100554662057187,0.001112722634302571,-0.2228099984405825,-0.494054888981752,0.2740177102616207,1.322507037047546,0.1788538622434415,0.04720727986544512,1.367817500991658,0.07463563645351241,0.1130730026550373,-0.3490271840467188,0.244420130809577,-0.1683607419587806,0.2762009411043803,-0.5021765906760487,-0.2215759704478025,803.8461538461539,794.1758241758242,795.7875457875458,800.2197802197802,817.5457875457876,953.3333333333334,-0.440735,0.044189,0.890747,0.770111,0.478516,-0.441132,1,1,1,1,1,97.000000
2025-03-27 12:58:41.836,0.1274574106026136,0.02761687910442531,-0.340950068939587,0.2100554662057187,0.001112722634302571,-0.2228099984405825,-0.494054888981752,0.2740177102616207,1.322507037047546,0.1788538622434415,0.04720727986544512,1.367817500991658,0.07463563645351241,0.1130730026550373,-0.3490271840467188,0.244420130809577,-0.1683607419587806,0.2762009411043803,-0.5021765906760487,-0.2215759704478025,800.2197802197802,798.2051282051282,797.8021978021978,801.8315018315019,859.047619047619,766.3736263736264,-0.440735,0.044189,0.890747,0.770111,0.478516,-0.441132,1,1,1,1,1,97.000000
2025-03-27 12:58:41.836,0.1274574106026136,0.02761687910442531,-0.340950068939587,0.2100554662057187,0.001112722634302571,-0.2228099984405825,-0.494054888981752,0.2740177102616207,1.322507037047546,0.1788538622434415,0.04720727986544512,1.367817500991658,0.07463563645351241,0.1130730026550373,-0.3490271840467188,0.244420130809577,-0.1683607419587806,0.2762009411043803,-0.5021765906760487,-0.2215759704478025,801.8315018315019,796.996336996337,794.981684981685,799.4139194139194,843.7362637362637,734.5421245421246,-0.440735,0.044189,0.890747,0.770111,0.478516,-0.441132,1,1,1,1,1,97.000000
2025-03-27 12:58:41.837,0.1274574106026136,0.02761687910442531,-0.340950068939587,0.2100554662057187,0.001112722634302571,-0.2228099984405825,-0.494054888981752,0.2740177102616207,1.322507037047546,0.1788538622434415,0.04720727986544512,1.367817500991658,0.07463563645351241,0.1130730026550373,-0.3490271840467188,0.244420130809577,-0.1683607419587806,0.2762009411043803,-0.5021765906760487,-0.2215759704478025,796.996336996337,789.7435897435897,794.981684981685,790.1465201465202,805.4578754578755,648.3150183150183,-0.440735,0.044189,0.890747,0.770111,0.478516,-0.441132,1,1,1,1,1,97.000000
2025-03-27 12:58:41.837,0.1274574106026136,0.02761687910442531,-0.340950068939587,0.2100554662057187,0.001112722634302571,-0.2228099984405825,-0.494054888981752,0.2740177102616207,1.322507037047546,0.1788538622434415,0.04720727986544512,1.367817500991658,0.07463563645351241,0.1130730026550373,-0.3490271840467188,0.244420130809577,-0.1683607419587806,0.2762009411043803,-0.5021765906760487,-0.2215759704478025,793.3699633699634,797.8021978021978,801.4285714285714,788.1318681318681,863.8827838827839,736.5567765567765,-0.440735,0.044189,0.890747,0.770111,0.478516,-0.441132,1,1,1,1,1,97.000000
2025-03-27 12:58:41.838,0.1274574106026136,0.02761687910442531,-0.340950068939587,0.2100554662057187,0.001112722634302571,-0.2228099984405825,-0.494054888981752,0.2740177102616207,1.322507037047546,0.1788538622434415,0.04720727986544512,1.367817500991658,0.07463563645351241,0.1130730026550373,-0.3490271840467188,0.244420130809577,-0.1683607419587806,0.2762009411043803,-0.5021765906760487,-0.2215759704478025,794.5787545787546,804.6520146520147,801.8315018315019,791.3553113553114,872.7472527472528,969.047619047619,-0.444458,0.044495,0.882629,0.605621,0.590668,-0.785065,1,1,1,1,1,97.000000
2025-03-27 12:58:41.838,0.1274574106026136,0.02761687910442531,-0.340950068939587,0.2100554662057187,0.001112722634302571,-0.2228099984405825,-0.494054888981752,0.2740177102616207,1.322507037047546,0.1788538622434415,0.04720727986544512,1.367817500991658,0.07463563645351241,0.1130730026550373,-0.3490271840467188,0.244420130809577,-0.1683607419587806,0.2762009411043803,-0.5021765906760487,-0.2215759704478025,793.3699633699634,791.7582417582418,801.025641025641,794.1758241758242,788.9377289377289,774.8351648351648,-0.444458,0.044495,0.882629,0.605621,0.590668,-0.785065,1,1,1,1,1,97.000000
2025-03-27 12:58:41.838,0.1274574106026136,0.02761687910442531,-0.340950068939587,0.2100554662057187,0.001112722634302571,-0.2228099984405825,-0.494054888981752,0.2740177102616207,1.322507037047546,0.1788538622434415,0.04720727986544512,1.367817500991658,0.07463563645351241,0.1130730026550373,-0.3490271840467188,0.244420130809577,-0.1683607419587806,0.2762009411043803,-0.5021765906760487,-0.2215759704478025,786.5201465201466,791.7582417582418,801.025641025641,794.5787545787546,829.6336996336996,675.3113553113553,-0.444458,0.044495,0.882629,0.605621,0.590668,-0.785065,1,1,1,1,1,97.000000
2025-03-27 12:58:41.838,0.1274574106026136,0.02761687910442531,-0.340950068939587,0.2100554662057187,0.001112722634302571,-0.2228099984405825,-0.494054888981752,0.2740177102616207,1.322507037047546,0.1788538622434415,0.04720727986544512,1.367817500991658,0.07463563645351241,0.1130730026550373,-0.3490271840467188,0.244420130809577,-0.1683607419587806,0.2762009411043803,-0.5021765906760487,-0.2215759704478025,787.7289377289378,799.8168498168499,796.1904761904763,795.7875457875458,858.2417582417582,697.0695970695971,-0.444458,0.044495,0.882629,0.605621,0.590668,-0.785065,1,1,1,1,1,97.000000
2025-03-27 12:58:41.839,0.1274574106026136,0.02761687910442531,-0.340950068939587,0.2100554662057187,0.001112722634302571,-0.2228099984405825,-0.494054888981752,0.2740177102616207,1.322507037047546,0.1788538622434415,0.04720727986544512,1.367817500991658,0.07463563645351241,0.1130730026550373,-0.3490271840467188,0.244420130809577,-0.1683607419587806,0.2762009411043803,-0.5021765906760487,-0.2215759704478025,788.5347985347986,797.3992673992674,791.3553113553114,789.3406593406594,869.92673992674,645.8974358974359,-0.444458,0.044495,0.882629,0.605621,0.590668,-0.785065,1,1,1,1,1,97.000000
2025-03-27 12:58:41.839,0.1274574106026136,0.02761687910442531,-0.340950068939587,0.2100554662057187,0.001112722634302571,-0.2228099984405825,-0.494054888981752,0.2740177102616207,1.322507037047546,0.1788538622434415,0.04720727986544512,1.367817500991658,0.07463563645351241,0.1130730026550373,-0.3490271840467188,0.244420130809577,-0.1683607419587806,0.2762009411043803,-0.5021765906760487,-0.2215759704478025,788.9377289377289,799.8168498168499,793.3699633699634,789.7435897435897,851.3919413919414,1000.879120879121,-0.444458,0.044495,0.882629,0.605621,0.590668,-0.785065,1,1,1,1,1,97.000000
2025-03-27 12:58:41.839,0.1274574106026136,0.02761687910442531,-0.340950068939587,0.2100554662057187,0.001112722634302571,-0.2228099984405825,-0.494054888981752,0.2740177102616207,1.322507037047546,0.1788538622434415,0.04720727986544512,1.367817500991658,0.07463563645351241,0.1130730026550373,-0.3490271840467188,0.244420130809577,-0.1683607419587806,0.2762009411043803,-0.5021765906760487,-0.2215759704478025,788.9377289377289,800.2197802197802,794.981684981685,788.9377289377289,828.8278388278388,1276.483516483516,-0.444458,0.044495,0.882629,0.605621,0.590668,-0.785065,1,1,1,1,1,97.000000
2025-03-27 12:58:41.839,0.1274574106026136,0.02761687910442531,-0.340950068939587,0.2100554662057187,0.001112722634302571,-0.2228099984405825,-0.494054888981752,0.2740177102616207,1.322507037047546,0.1788538622434415,0.04720727986544512,1.367817500991658,0.07463563645351241,0.1130730026550373,-0.3490271840467188,0.244420130809577,-0.1683607419587806,0.2762009411043803,-0.5021765906760487,-0.2215759704478025,786.9230769230769,792.967032967033,792.5641025641025,782.893772893773,880,942.4542124542124,-0.444458,0.044495,0.882629,0.605621,0.590668,-0.785065,1,1,1,1,1,97.000000
2025-03-27 12:58:41.840,0.1274574106026136,0.02761687910442531,-0.340950068939587,0.2100554662057187,0.001112722634302571,-0.2228099984405825,-0.494054888981752,0.2740177102616207,1.322507037047546,0.1788538622434415,0.04720727986544512,1.367817500991658,0.07463563645351241,0.1130730026550373,-0.3490271840467188,0.244420130809577,-0.1683607419587806,0.2762009411043803,-0.5021765906760487,-0.2215759704478025,790.1465201465202,793.7728937728938,795.3846153846154,785.3113553113553,936.007326007326,733.3333333333334,-0.444458,0.044495,0.882629,0.605621,0.590668,-0.785065,1,1,1,1,1,97.000000
2025-03-27 12:58:41.840,0.1274574106026136,0.02761687910442531,-0.340950068939587,0.2100554662057187,0.001112722634302571,-0.2228099984405825,-0.494054888981752,0.2740177102616207,1.322507037047546,0.1788538622434415,0.04720727986544512,1.367817500991658,0.07463563645351241,0.1130730026550373,-0.3490271840467188,0.244420130809577,-0.1683607419587806,0.2762009411043803,-0.5021765906760487,-0.2215759704478025,790.952380952381,792.5641025641025,794.1758241758242,787.3260073260074,894.1025641025641,743.8095238095239,-0.444458,0.044495,0.882629,0.605621,0.590668,-0.785065,1,1,1,1,1,97.000000
2025-03-27 12:58:41.840,0.1274574106026136,0.02761687910442531,-0.340950068939587,0.2100554662057187,0.001112722634302571,-0.2228099984405825,-0.494054888981752,0.2740177102616207,1.322507037047546,0.1788538622434415,0.04720727986544512,1.367817500991658,0.07463563645351241,0.1130730026550373,-0.3490271840467188,0.244420130809577,-0.1683607419587806,0.2762009411043803,-0.5021765906760487,-0.2215759704478025,792.967032967033,795.3846153846154,793.7728937728938,782.893772893773,871.1355311355312,755.4945054945055,-0.444458,0.044495,0.882629,0.605621,0.590668,-0.785065,1,1,1,1,1,97.000000
2025-03-27 12:58:41.841,0.148448366880425,0.05217562144479296,-0.2657459638832732,0.198067725062063,-0.002465770521469146,-0.2304303951072497,-0.4592945148281142,0.3080725338544478,1.322507037047546,0.1778883599523138,0.1037960979735846,1.368209938737717,0.08507881294307017,0.109384720562799,-0.3392508042829774,0.2528495235831533,-0.1458461596669145,0.2592336213838322,-0.4974101546755449,-0.2098347916195034,794.981684981685,794.1758241758242,794.1758241758242,776.4468864468864,885.2380952380953,695.4578754578755,-0.444458,0.044495,0.882629,0.605621,0.590668,-0.785065,1,1,1,1,1,97.000000
2025-03-27 12:58:41.841,0.148448366880425,0.05217562144479296,-0.2657459638832732,0.198067725062063,-0.002465770521469146,-0.2304303951072497,-0.4592945148281142,0.3080725338544478,1.322507037047546,0.1778883599523138,0.1037960979735846,1.368209938737717,0.08507881294307017,0.109384720562799,-0.3392508042829774,0.2528495235831533,-0.1458461596669145,0.2592336213838322,-0.4974101546755449,-0.2098347916195034,801.025641025641,801.025641025641,793.7728937728938,782.893772893773,852.6007326007326,786.5201465201466,-0.444458,0.044495,0.882629,0.605621,0.590668,-0.785065,1,1,1,1,1,97.000000
2025-03-27 12:58:41.841,0.148448366880425,0.05217562144479296,-0.2657459638832732,0.198067725062063,-0.002465770521469146,-0.2304303951072497,-0.4592945148281142,0.3080725338544478,1.322507037047546,0.1778883599523138,0.1037960979735846,1.368209938737717,0.08507881294307017,0.109384720562799,-0.3392508042829774,0.2528495235831533,-0.1458461596669145,0.2592336213838322,-0.4974101546755449,-0.2098347916195034,805.4578754578755,804.2490842490843,794.1758241758242,793.7728937728938,826.8131868131868,969.8534798534798,-0.444458,0.044495,0.882629,0.605621,0.590668,-0.785065,1,1,1,1,1,97.000000
2025-03-27 12:58:41.842,0.148448366880425,0.05217562144479296,-0.2657459638832732,0.198067725062063,-0.002465770521469146,-0.2304303951072497,-0.4592945148281142,0.3080725338544478,1.322507037047546,0.1778883599523138,0.1037960979735846,1.368209938737717,0.08507881294307017,0.109384720562799,-0.3392508042829774,0.2528495235831533,-0.1458461596669145,0.2592336213838322,-0.4974101546755449,-0.2098347916195034,809.0842490842491,797.3992673992674,792.5641025641025,794.981684981685,827.6190476190476,763.1501831501831,-0.444458,0.044495,0.882629,0.605621,0.590668,-0.785065,1,1,1,1,1,97.000000
2025-03-27 12:58:41.842,0.148448366880425,0.05217562144479296,-0.2657459638832732,0.198067725062063,-0.002465770521469146,-0.2304303951072497,-0.4592945148281142,0.3080725338544478,1.322507037047546,0.1778883599523138,0.1037960979735846,1.368209938737717,0.08507881294307017,0.109384720562799,-0.3392508042829774,0.2528495235831533,-0.1458461596669145,0.2592336213838322,-0.4974101546755449,-0.2098347916195034,805.8608058608058,799.0109890109891,795.3846153846154,790.952380952381,823.1868131868132,821.5750915750916,-0.444458,0.044495,0.882629,0.605621,0.590668,-0.785065,1,1,1,1,1,97.000000
2025-03-27 12:58:41.842,0.148448366880425,0.05217562144479296,-0.2657459638832732,0.198067725062063,-0.002465770521469146,-0.2304303951072497,-0.4592945148281142,0.3080725338544478,1.322507037047546,0.1778883599523138,0.1037960979735846,1.368209938737717,0.08507881294307017,0.109384720562799,-0.3392508042829774,0.2528495235831533,-0.1458461596669145,0.2592336213838322,-0.4974101546755449,-0.2098347916195034,803.040293040293,797.8021978021978,798.2051282051282,794.1758241758242,776.0439560439561,808.2783882783883,-0.444458,0.044495,0.882629,0.605621,0.590668,-0.785065,1,1,1,1,1,97.000000
2025-03-27 12:58:41.842,0.148448366880425,0.05217562144479296,-0.2657459638832732,0.198067725062063,-0.002465770521469146,-0.2304303951072497,-0.4592945148281142,0.3080725338544478,1.322507037047546,0.1778883599523138,0.1037960979735846,1.368209938737717,0.08507881294307017,0.109384720562799,-0.3392508042829774,0.2528495235831533,-0.1458461596669145,0.2592336213838322,-0.4974101546755449,-0.2098347916195034,803.8461538461539,802.6373626373627,796.5934065934066,797.3992673992674,792.967032967033,1027.875457875458,-0.444458,0.044495,0.882629,0.605621,0.590668,-0.785065,1,1,1,1,1,97.000000
2025-03-27 12:58:41.843,0.148448366880425,0.05217562144479296,-0.2657459638832732,0.198067725062063,-0.002465770521469146,-0.2304303951072497,-0.4592945148281142,0.3080725338544478,1.322507037047546,0.1778883599523138,0.1037960979735846,1.368209938737717,0.08507881294307017,0.109384720562799,-0.3392508042829774,0.2528495235831533,-0.1458461596669145,0.2592336213838322,-0.4974101546755449,-0.2098347916195034,801.025641025641,789.7435897435897,796.1904761904763,797.8021978021978,841.3186813186813,1193.076923076923,-0.444458,0.044495,0.882629,0.605621,0.590668,-0.785065,1,1,1,1,1,97.000000
2025-03-27 12:58:41.843,0.148448366880425,0.05217562144479296,-0.2657459638832732,0.198067725062063,-0.002465770521469146,-0.2304303951072497,-0.4592945148281142,0.3080725338544478,1.322507037047546,0.1778883599523138,0.1037960979735846,1.368209938737717,0.08507881294307017,0.109384720562799,-0.3392508042829774,0.2528495235831533,-0.1458461596669145,0.2592336213838322,-0.4974101546755449,-0.2098347916195034,799.4139194139194,782.4908424908425,800.6227106227107,797.3992673992674,862.2710622710623,765.5677655677656,-0.444458,0.044495,0.882629,0.605621,0.590668,-0.785065,1,1,1,1,1,97.000000
2025-03-27 12:58:41.843,0.148448366880425,0.05217562144479296,-0.2657459638832732,0.198067725062063,-0.002465770521469146,-0.2304303951072497,-0.4592945148281142,0.3080725338544478,1.322507037047546,0.1778883599523138,0.1037960979735846,1.368209938737717,0.08507881294307017,0.109384720562799,-0.3392508042829774,0.2528495235831533,-0.1458461596669145,0.2592336213838322,-0.4974101546755449,-0.2098347916195034,795.7875457875458,791.7582417582418,799.0109890109891,787.7289377289378,845.3479853479854,476.6666666666667,-0.444458,0.044495,0.882629,0.605621,0.590668,-0.785065,1,1,1,1,1,97.000000
2025-03-27 12:58:41.844,0.148448366880425,0.05217562144479296,-0.2657459638832732,0.198067725062063,-0.002465770521469146,-0.2304303951072497,-0.4592945148281142,0.3080725338544478,1.322507037047546,0.1778883599523138,0.1037960979735846,1.368209938737717,0.08507881294307017,0.109384720562799,-0.3392508042829774,0.2528495235831533,-0.1458461596669145,0.2592336213838322,-0.4974101546755449,-0.2098347916195034,794.1758241758242,799.8168498168499,796.5934065934066,786.1172161172161,850.5860805860806,618.4981684981685,-0.444458,0.044495,0.882629,0.605621,0.590668,-0.785065,1,1,1,1,1,97.000000
2025-03-27 12:58:41.844,0.148448366880425,0.05217562144479296,-0.2657459638832732,0.198067725062063,-0.002465770521469146,-0.2304303951072497,-0.4592945148281142,0.3080725338544478,1.322507037047546,0.1778883599523138,0.1037960979735846,1.368209938737717,0.08507881294307017,0.109384720562799,-0.3392508042829774,0.2528495235831533,-0.1458461596669145,0.2592336213838322,-0.4974101546755449,-0.2098347916195034,792.1611721611722,799.0109890109891,797.8021978021978,786.9230769230769,885.2380952380953,735.7509157509157,-0.444458,0.044495,0.882629,0.605621,0.590668,-0.785065,1,1,1,1,1,97.000000
2025-03-27 12:58:41.844,0.148448366880425,0.05217562144479296,-0.2657459638832732,0.198067725062063,-0.002465770521469146,-0.2304303951072497,-0.4592945148281142,0.3080725338544478,1.322507037047546,0.1778883599523138,0.1037960979735846,1.368209938737717,0.08507881294307017,0.109384720562799,-0.3392508042829774,0.2528495235831533,-0.1458461596669145,0.2592336213838322,-0.4974101546755449,-0.2098347916195034,788.1318681318681,790.1465201465202,793.3699633699634,783.6996336996338,844.5421245421246,662.4175824175825,-0.444458,0.044495,0.882629,0.605621,0.590668,-0.785065,1,1,1,1,1,97.000000
2025-03-27 12:58:41.845,0.148448366880425,0.05217562144479296,-0.2657459638832732,0.198067725062063,-0.002465770521469146,-0.2304303951072497,-0.4592945148281142,0.3080725338544478,1.322507037047546,0.1778883599523138,0.1037960979735846,1.368209938737717,0.08507881294307017,0.109384720562799,-0.3392508042829774,0.2528495235831533,-0.1458461596669145,0.2592336213838322,-0.4974101546755449,-0.2098347916195034,786.5201465201466,790.1465201465202,790.5494505494506,784.9084249084249,798.6080586080586,552.8205128205128,-0.444702,0.036682,0.884705,0.186920,0.209351,-0.269165,1,1,1,1,1,97.000000
2025-03-27 12:58:41.845,0.148448366880425,0.05217562144479296,-0.2657459638832732,0.198067725062063,-0.002465770521469146,-0.2304303951072497,-0.4592945148281142,0.3080725338544478,1.322507037047546,0.1778883599523138,0.1037960979735846,1.368209938737717,0.08507881294307017,0.109384720562799,-0.3392508042829774,0.2528495235831533,-0.1458461596669145,0.2592336213838322,-0.4974101546755449,-0.2098347916195034,789.3406593406594,797.8021978021978,791.7582417582418,793.3699633699634,840.9157509157509,667.6556776556777,-0.444702,0.036682,0.884705,0.186920,0.209351,-0.269165,1,1,1,1,1,97.000000
2025-03-27 12:58:41.845,0.148448366880425,0.05217562144479296,-0.2657459638832732,0.198067725062063,-0.002465770521469146,-0.2304303951072497,-0.4592945148281142,0.3080725338544478,1.322507037047546,0.1778883599523138,0.1037960979735846,1.368209938737717,0.08507881294307017,0.109384720562799,-0.3392508042829774,0.2528495235831533,-0.1458461596669145,0.2592336213838322,-0.4974101546755449,-0.2098347916195034,792.1611721611722,797.8021978021978,793.7728937728938,796.1904761904763,872.3443223443223,794.1758241758242,-0.444702,0.036682,0.884705,0.186920,0.209351,-0.269165,1,1,1,1,1,97.000000
2025-03-27 12:58:41.846,0.148448366880425,0.05217562144479296,-0.2657459638832732,0.198067725062063,-0.002465770521469146,-0.2304303951072497,-0.4592945148281142,0.3080725338544478,1.322507037047546,0.1778883599523138,0.1037960979735846,1.368209938737717,0.08507881294307017,0.109384720562799,-0.3392508042829774,0.2528495235831533,-0.1458461596669145,0.2592336213838322,-0.4974101546755449,-0.2098347916195034,790.5494505494506,794.5787545787546,792.1611721611722,799.8168498168499,805.0549450549451,697.0695970695971,-0.444702,0.036682,0.884705,0.186920,0.209351,-0.269165,1,1,1,1,1,97.000000
2025-03-27 12:58:41.846,0.148448366880425,0.05217562144479296,-0.2657459638832732,0.198067725062063,-0.002465770521469146,-0.2304303951072497,-0.4592945148281142,0.3080725338544478,1.322507037047546,0.1778883599523138,0.1037960979735846,1.368209938737717,0.08507881294307017,0.109384720562799,-0.3392508042829774,0.2528495235831533,-0.1458461596669145,0.2592336213838322,-0.4974101546755449,-0.2098347916195034,791.7582417582418,799.4139194139194,789.7435897435897,800.2197802197802,752.2710622710623,580.6227106227107,-0.444702,0.036682,0.884705,0.186920,0.209351,-0.269165,1,1,1,1,1,97.000000
2025-03-27 12:58:41.846,0.148448366880425,0.05217562144479296,-0.2657459638832732,0.198067725062063,-0.002465770521469146,-0.2304303951072497,-0.4592945148281142,0.3080725338544478,1.322507037047546,0.1778883599523138,0.1037960979735846,1.368209938737717,0.08507881294307017,0.109384720562799,-0.3392508042829774,0.2528495235831533,-0.1458461596669145,0.2592336213838322,-0.4974101546755449,-0.2098347916195034,794.5787545787546,810.2930402930403,796.1904761904763,801.8315018315019,766.3736263736264,862.2710622710623,-0.444702,0.036682,0.884705,0.186920,0.209351,-0.269165,1,1,1,1,1,97.000000
2025-03-27 12:58:41.846,0.148448366880425,0.05217562144479296,-0.2657459638832732,0.198067725062063,-0.002465770521469146,-0.2304303951072497,-0.4592945148281142,0.3080725338544478,1.322507037047546,0.1778883599523138,0.1037960979735846,1.368209938737717,0.08507881294307017,0.109384720562799,-0.3392508042829774,0.2528495235831533,-0.1458461596669145,0.2592336213838322,-0.4974101546755449,-0.2098347916195034,800.2197802197802,809.8901098901099,801.8315018315019,810.2930402930403,815.1282051282052,1124.981684981685,-0.444702,0.036682,0.884705,0.186920,0.209351,-0.269165,1,1,1,1,1,97.000000
2025-03-27 12:58:41.847,0.148448366880425,0.05217562144479296,-0.2657459638832732,0.198067725062063,-0.002465770521469146,-0.2304303951072497,-0.4592945148281142,0.3080725338544478,1.322507037047546,0.1778883599523138,0.1037960979735846,1.368209938737717,0.08507881294307017,0.109384720562799,-0.3392508042829774,0.2528495235831533,-0.1458461596669145,0.2592336213838322,-0.4974101546755449,-0.2098347916195034,800.6227106227107,801.4285714285714,799.8168498168499,812.3076923076924,828.8278388278388,1087.106227106227,-0.444702,0.036682,0.884705,0.186920,0.209351,-0.269165,1,1,1,1,1,97.000000
2025-03-27 12:58:41.847,0.148448366880425,0.05217562144479296,-0.2657459638832732,0.198067725062063,-0.002465770521469146,-0.2304303951072497,-0.4592945148281142,0.3080725338544478,1.322507037047546,0.1778883599523138,0.1037960979735846,1.368209938737717,0.08507881294307017,0.109384720562799,-0.3392508042829774,0.2528495235831533,-0.1458461596669145,0.2592336213838322,-0.4974101546755449,-0.2098347916195034,799.4139194139194,797.3992673992674,796.996336996337,804.6520146520147,845.3479853479854,831.2454212454213,-0.444702,0.036682,0.884705,0.186920,0.209351,-0.269165,1,1,1,1,1,97.000000
2025-03-27 12:58:41.847,0.148448366880425,0.05217562144479296,-0.2657459638832732,0.198067725062063,-0.002465770521469146,-0.2304303951072497,-0.4592945148281142,0.3080725338544478,1.322507037047546,0.1778883599523138,0.1037960979735846,1.368209938737717,0.08507881294307017,0.109384720562799,-0.3392508042829774,0.2528495235831533,-0.1458461596669145,0.2592336213838322,-0.4974101546755449,-0.2098347916195034,794.5787545787546,803.4432234432235,795.3846153846154,802.2344322344322,877.1794871794872,720.0366300366301,-0.444702,0.036682,0.884705,0.186920,0.209351,-0.269165,1,1,1,1,1,97.000000
2025-03-27 12:58:41.847,0.148448366880425,0.05217562144479296,-0.2657459638832732,0.198067725062063,-0.002465770521469146,-0.2304303951072497,-0.4592945148281142,0.3080725338544478,1.322507037047546,0.1778883599523138,0.1037960979735846,1.368209938737717,0.08507881294307017,0.109384720562799,-0.3392508042829774,0.2528495235831533,-0.1458461596669145,0.2592336213838322,-0.4974101546755449,-0.2098347916195034,795.7875457875458,804.2490842490843,796.5934065934066,804.6520146520147,826.4102564102565,685.7875457875458,-0.444702,0.036682,0.884705,0.186920,0.209351,-0.269165,1,1,1,1,1,97.000000
2025-03-27 12:58:41.848,0.148448366880425,0.05217562144479296,-0.2657459638832732,0.198067725062063,-0.002465770521469146,-0.2304303951072497,-0.4592945148281142,0.3080725338544478,1.322507037047546,0.1778883599523138,0.1037960979735846,1.368209938737717,0.08507881294307017,0.109384720562799,-0.3392508042829774,0.2528495235831533,-0.1458461596669145,0.2592336213838322,-0.4974101546755449,-0.2098347916195034,803.8461538461539,809.0842490842491,796.1904761904763,804.2490842490843,786.9230769230769,660.8058608058608,-0.444702,0.036682,0.884705,0.186920,0.209351,-0.269165,1,1,1,1,1,97.000000
2025-03-27 12:58:41.848,0.148448366880425,0.05217562144479296,-0.2657459638832732,0.198067725062063,-0.002465770521469146,-0.2304303951072497,-0.4592945148281142,0.3080725338544478,1.322507037047546,0.1778883599523138,0.1037960979735846,1.368209938737717,0.08507881294307017,0.109384720562799,-0.3392508042829774,0.2528495235831533,-0.1458461596669145,0.2592336213838322,-0.4974101546755449,-0.2098347916195034,799.4139194139194,811.0989010989011,792.967032967033,801.025641025641,825.2014652014652,955.7509157509157,-0.450134,0.031982,0.877197,0.097198,0.127106,-0.448608,1,1,1,1,1,97.000000
2025-03-27 12:58:41.848,0.1731826929154051,0.07549210024172991,-0.1975630632585595,0.2037350343038808,-0.004853918306026044,-0.2352214484213282,-0.4355915905987725,0.336561696912122,1.322507037047546,0.1759517626001862,0.1664676770278229,1.369723106355549,0.09893132006702861,0.1137041905609726,-0.3229411623619716,0.2653236584440284,-0.1234408354934987,0.2460659999118334,-0.5019278908753841,-0.2052094280296635,796.1904761904763,800.2197802197802,795.3846153846154,797.3992673992674,824.3956043956044,915.8608058608058,-0.450134,0.031982,0.877197,0.097198,0.127106,-0.448608,1,1,1,1,1,97.000000
2025-03-27 12:58:41.849,0.1731826929154051,0.07549210024172991,-0.1975630632585595,0.2037350343038808,-0.004853918306026044,-0.2352214484213282,-0.4355915905987725,0.336561696912122,1.322507037047546,0.1759517626001862,0.1664676770278229,1.369723106355549,0.09893132006702861,0.1137041905609726,-0.3229411623619716,0.2653236584440284,-0.1234408354934987,0.2460659999118334,-0.5019278908753841,-0.2052094280296635,793.3699633699634,797.3992673992674,798.6080586080586,794.981684981685,772.8205128205128,639.4505494505495,-0.450134,0.031982,0.877197,0.097198,0.127106,-0.448608,1,1,1,1,1,97.000000
2025-03-27 12:58:41.849,0.1731826929154051,0.07549210024172991,-0.1975630632585595,0.2037350343038808,-0.004853918306026044,-0.2352214484213282,-0.4355915905987725,0.336561696912122,1.322507037047546,0.1759517626001862,0.1664676770278229,1.369723106355549,0.09893132006702861,0.1137041905609726,-0.3229411623619716,0.2653236584440284,-0.1234408354934987,0.2460659999118334,-0.5019278908753841,-0.2052094280296635,793.3699633699634,801.4285714285714,797.3992673992674,797.8021978021978,794.5787545787546,676.1172161172161,-0.450134,0.031982,0.877197,0.097198,0.127106,-0.448608,1,1,1,1,1,97.000000
2025-03-27 12:58:41.849,0.1731826929154051,0.07549210024172991,-0.1975630632585595,0.2037350343038808,-0.004853918306026044,-0.2352214484213282,-0.4355915905987725,0.336561696912122,1.322507037047546,0.1759517626001862,0.1664676770278229,1.369723106355549,0.09893132006702861,0.1137041905609726,-0.3229411623619716,0.2653236584440284,-0.1234408354934987,0.2460659999118334,-0.5019278908753841,-0.2052094280296635,798.2051282051282,801.025641025641,800.2197802197802,800.6227106227107,862.6739926739926,841.3186813186813,-0.450134,0.031982,0.877197,0.097198,0.127106,-0.448608,1,1,1,1,1,97.000000
2025-03-27 12:58:41.850,0.1731826929154051,0.07549210024172991,-0.1975630632585595,0.2037350343038808,-0.004853918306026044,-0.2352214484213282,-0.4355915905987725,0.336561696912122,1.322507037047546,0.1759517626001862,0.1664676770278229,1.369723106355549,0.09893132006702861,0.1137041905609726,-0.3229411623619716,0.2653236584440284,-0.1234408354934987,0.2460659999118334,-0.5019278908753841,-0.2052094280296635,799.8168498168499,804.2490842490843,800.2197802197802,796.1904761904763,897.3260073260074,1033.516483516484,-0.450134,0.031982,0.877197,0.097198,0.127106,-0.448608,1,1,1,1,1,97.000000
2025-03-27 12:58:41.850,0.1731826929154051,0.07549210024172991,-0.1975630632585595,0.2037350343038808,-0.004853918306026044,-0.2352214484213282,-0.4355915905987725,0.336561696912122,1.322507037047546,0.1759517626001862,0.1664676770278229,1.369723106355549,0.09893132006702861,0.1137041905609726,-0.3229411623619716,0.2653236584440284,-0.1234408354934987,0.2460659999118334,-0.5019278908753841,-0.2052094280296635,798.2051282051282,803.8461538461539,797.3992673992674,792.967032967033,917.4725274725275,1149.157509157509,-0.450134,0.031982,0.877197,0.097198,0.127106,-0.448608,1,1,1,1,1,97.000000
2025-03-27 12:58:41.850,0.1731826929154051,0.07549210024172991,-0.1975630632585595,0.2037350343038808,-0.004853918306026044,-0.2352214484213282,-0.4355915905987725,0.336561696912122,1.322507037047546,0.1759517626001862,0.1664676770278229,1.369723106355549,0.09893132006702861,0.1137041905609726,-0.3229411623619716,0.2653236584440284,-0.1234408354934987,0.2460659999118334,-0.5019278908753841,-0.2052094280296635,803.8461538461539,800.2197802197802,797.8021978021978,801.025641025641,891.2820512820513,944.4688644688645,-0.450134,0.031982,0.877197,0.097198,0.127106,-0.448608,1,1,1,1,1,97.000000
2025-03-27 12:58:41.850,0.1731826929154051,0.07549210024172991,-0.1975630632585595,0.2037350343038808,-0.004853918306026044,-0.2352214484213282,-0.4355915905987725,0.336561696912122,1.322507037047546,0.1759517626001862,0.1664676770278229,1.369723106355549,0.09893132006702861,0.1137041905609726,-0.3229411623619716,0.2653236584440284,-0.1234408354934987,0.2460659999118334,-0.5019278908753841,-0.2052094280296635,809.8901098901099,796.5934065934066,796.996336996337,808.6813186813187,825.2014652014652,593.5164835164835,-0.450134,0.031982,0.877197,0.097198,0.127106,-0.448608,1,1,1,1,1,97.000000
2025-03-27 12:58:41.851,0.1731826929154051,0.07549210024172991,-0.1975630632585595,0.2037350343038808,-0.004853918306026044,-0.2352214484213282,-0.4355915905987725,0.336561696912122,1.322507037047546,0.1759517626001862,0.1664676770278229,1.369723106355549,0.09893132006702861,0.1137041905609726,-0.3229411623619716,0.2653236584440284,-0.1234408354934987,0.2460659999118334,-0.5019278908753841,-0.2052094280296635,812.3076923076924,801.8315018315019,792.5641025641025,807.8754578754579,771.2087912087912,549.1941391941392,-0.450134,0.031982,0.877197,0.097198,0.127106,-0.448608,1,1,1,1,1,97.000000
2025-03-27 12:58:41.851,0.1731826929154051,0.07549210024172991,-0.1975630632585595,0.2037350343038808,-0.004853918306026044,-0.2352214484213282,-0.4355915905987725,0.336561696912122,1.322507037047546,0.1759517626001862,0.1664676770278229,1.369723106355549,0.09893132006702861,0.1137041905609726,-0.3229411623619716,0.2653236584440284,-0.1234408354934987,0.2460659999118334,-0.5019278908753841,-0.2052094280296635,813.1135531135532,813.919413919414,801.4285714285714,805.4578754578755,771.2087912087912,814.7252747252747,-0.450134,0.031982,0.877197,0.097198,0.127106,-0.448608,1,1,1,1,1,97.000000
2025-03-27 12:58:41.851,0.1731826929154051,0.07549210024172991,-0.1975630632585595,0.2037350343038808,-0.004853918306026044,-0.2352214484213282,-0.4355915905987725,0.336561696912122,1.322507037047546,0.1759517626001862,0.1664676770278229,1.369723106355549,0.09893132006702861,0.1137041905609726,-0.3229411623619716,0.2653236584440284,-0.1234408354934987,0.2460659999118334,-0.5019278908753841,-0.2052094280296635,810.6959706959707,806.2637362637363,804.2490842490843,802.6373626373627,819.1575091575091,859.047619047619,-0.450134,0.031982,0.877197,0.097198,0.127106,-0.448608,1,1,1,1,1,97.000000
2025-03-27 12:58:41.852,0.1731826929154051,0.07549210024172991,-0.1975630632585595,0.2037350343038808,-0.004853918306026044,-0.2352214484213282,-0.4355915905987725,0.336561696912122,1.322507037047546,0.1759517626001862,0.1664676770278229,1.369723106355549,0.09893132006702861,0.1137041905609726,-0.3229411623619716,0.2653236584440284,-0.1234408354934987,0.2460659999118334,-0.5019278908753841,-0.2052094280296635,806.6666666666667,796.1904761904763,801.8315018315019,801.025641025641,848.1684981684982,734.1391941391942,-0.455872,0.038269,0.884705,0.687866,-0.149536,-0.112152,1,1,1,1,1,97.000000
2025-03-27 12:58:41.852,0.1731826929154051,0.07549210024172991,-0.1975630632585595,0.2037350343038808,-0.004853918306026044,-0.2352214484213282,-0.4355915905987725,0.336561696912122,1.322507037047546,0.1759517626001862,0.1664676770278229,1.369723106355549,0.09893132006702861,0.1137041905609726,-0.3229411623619716,0.2653236584440284,-0.1234408354934987,0.2460659999118334,-0.5019278908753841,-0.2052094280296635,802.2344322344322,797.8021978021978,798.2051282051282,796.1904761904763,838.901098901099,711.1721611721612,-0.455872,0.038269,0.884705,0.687866,-0.149536,-0.112152,1,1,1,1,1,97.000000
2025-03-27 12:58:41.852,0.1731826929154051,0.07549210024172991,-0.1975630632585595,0.2037350343038808,-0.004853918306026044,-0.2352214484213282,-0.4355915905987725,0.336561696912122,1.322507037047546,0.1759517626001862,0.1664676770278229,1.369723106355549,0.09893132006702861,0.1137041905609726,-0.3229411623619716,0.2653236584440284,-0.1234408354934987,0.2460659999118334,-0.5019278908753841,-0.2052094280296635,800.6227106227107,800.6227106227107,796.5934065934066,795.3846153846154,834.0659340659341,736.5567765567765,-0.455872,0.038269,0.884705,0.687866,-0.149536,-0.112152,1,1,1,1,1,97.000000
2025-03-27 12:58:41.853,0.1731826929154051,0.07549210024172991,-0.1975630632585595,0.2037350343038808,-0.004853918306026044,-0.2352214484213282,-0.4355915905987725,0.336561696912122,1.322507037047546,0.1759517626001862,0.1664676770278229,1.369723106355549,0.09893132006702861,0.1137041905609726,-0.3229411623619716,0.2653236584440284,-0.1234408354934987,0.2460659999118334,-0.5019278908753841,-0.2052094280296635,804.2490842490843,801.8315018315019,799.8168498168499,801.025641025641,828.8278388278388,712.3809523809524,-0.455872,0.038269,0.884705,0.687866,-0.149536,-0.112152,1,1,1,1,1,97.000000
2025-03-27 12:58:41.853,0.1731826929154051,0.07549210024172991,-0.1975630632585595,0.2037350343038808,-0.004853918306026044,-0.2352214484213282,-0.4355915905987725,0.336561696912122,1.322507037047546,0.1759517626001862,0.1664676770278229,1.369723106355549,0.09893132006702861,0.1137041905609726,-0.3229411623619716,0.2653236584440284,-0.1234408354934987,0.2460659999118334,-0.5019278908753841,-0.2052094280296635,802.6373626373627,798.6080586080586,799.8168498168499,800.2197802197802,816.7399267399268,653.1501831501831,-0.455872,0.038269,0.884705,0.687866,-0.149536,-0.112152,1,1,1,1,1,97.000000
2025-03-27 12:58:41.853,0.1731826929154051,0.07549210024172991,-0.1975630632585595,0.2037350343038808,-0.004853918306026044,-0.2352214484213282,-0.4355915905987725,0.336561696912122,1.322507037047546,0.1759517626001862,0.1664676770278229,1.369723106355549,0.09893132006702861,0.1137041905609726,-0.3229411623619716,0.2653236584440284,-0.1234408354934987,0.2460659999118334,-0.5019278908753841,-0.2052094280296635,794.5787545787546,795.7875457875458,800.2197802197802,795.7875457875458,779.2673992673992,952.9304029304029,-0.455872,0.038269,0.884705,0.687866,-0.149536,-0.112152,1,1,1,1,1,97.000000
2025-03-27 12:58:41.854,0.1731826929154051,0.07549210024172991,-0.1975630632585595,0.2037350343038808,-0.004853918306026044,-0.2352214484213282,-0.4355915905987725,0.336561696912122,1.322507037047546,0.1759517626001862,0.1664676770278229,1.369723106355549,0.09893132006702861,0.1137041905609726,-0.3229411623619716,0.2653236584440284,-0.1234408354934987,0.2460659999118334,-0.5019278908753841,-0.2052094280296635,792.5641025641025,799.0109890109891,799.4139194139194,792.5641025641025,771.6117216117216,1145.531135531136,-0.455872,0.038269,0.884705,0.687866,-0.149536,-0.112152,1,1,1,1,1,97.000000
2025-03-27 12:58:41.854,0.1731826929154051,0.07549210024172991,-0.1975630632585595,0.2037350343038808,-0.004853918306026044,-0.2352214484213282,-0.4355915905987725,0.336561696912122,1.322507037047546,0.1759517626001862,0.1664676770278229,1.369723106355549,0.09893132006702861,0.1137041905609726,-0.3229411623619716,0.2653236584440284,-0.1234408354934987,0.2460659999118334,-0.5019278908753841,-0.2052094280296635,795.7875457875458,793.3699633699634,797.8021978021978,795.7875457875458,794.981684981685,838.901098901099,-0.455872,0.038269,0.884705,0.687866,-0.149536,-0.112152,1,1,1,1,1,97.000000
2025-03-27 12:58:41.854,0.1731826929154051,0.07549210024172991,-0.1975630632585595,0.2037350343038808,-0.004853918306026044,-0.2352214484213282,-0.4355915905987725,0.336561696912122,1.322507037047546,0.1759517626001862,0.1664676770278229,1.369723106355549,0.09893132006702861,0.1137041905609726,-0.3229411623619716,0.2653236584440284,-0.1234408354934987,0.2460659999118334,-0.5019278908753841,-0.2052094280296635,794.5787545787546,785.3113553113553,793.3699633699634,797.3992673992674,799.0109890109891,522.1978021978022,-0.455872,0.038269,0.884705,0.687866,-0.149536,-0.112152,1,1,1,1,1,97.000000
2025-03-27 12:58:41.854,0.1731826929154051,0.07549210024172991,-0.1975630632585595,0.2037350343038808,-0.004853918306026044,-0.2352214484213282,-0.4355915905987725,0.336561696912122,1.322507037047546,0.1759517626001862,0.1664676770278229,1.369723106355549,0.09893132006702861,0.1137041905609726,-0.3229411623619716,0.2653236584440284,-0.1234408354934987,0.2460659999118334,-0.5019278908753841,-0.2052094280296635,796.1904761904763,799.4139194139194,790.5494505494506,797.8021978021978,844.9450549450549,669.6703296703297,-0.455872,0.038269,0.884705,0.687866,-0.149536,-0.112152,1,1,1,1,1,97.000000
2025-03-27 12:58:41.855,0.1731826929154051,0.07549210024172991,-0.1975630632585595,0.2037350343038808,-0.004853918306026044,-0.2352214484213282,-0.4355915905987725,0.336561696912122,1.322507037047546,0.1759517626001862,0.1664676770278229,1.369723106355549,0.09893132006702861,0.1137041905609726,-0.3229411623619716,0.2653236584440284,-0.1234408354934987,0.2460659999118334,-0.5019278908753841,-0.2052094280296635,810.2930402930403,806.6666666666667,791.7582417582418,807.0695970695971,901.7582417582418,790.5494505494506,-0.455872,0.038269,0.884705,0.687866,-0.149536,-0.112152,1,1,1,1,1,97.000000
2025-03-27 12:58:41.855,0.1731826929154051,0.07549210024172991,-0.1975630632585595,0.2037350343038808,-0.004853918306026044,-0.2352214484213282,-0.4355915905987725,0.336561696912122,1.322507037047546,0.1759517626001862,0.1664676770278229,1.369723106355549,0.09893132006702861,0.1137041905609726,-0.3229411623619716,0.2653236584440284,-0.1234408354934987,0.2460659999118334,-0.5019278908753841,-0.2052094280296635,819.96336996337,801.8315018315019,790.952380952381,815.1282051282052,892.0879120879121,718.4249084249085,-0.455872,0.038269,0.884705,0.687866,-0.149536,-0.112152,1,1,1,1,1,97.000000
2025-03-27 12:58:41.855,0.1731826929154051,0.07549210024172991,-0.1975630632585595,0.2037350343038808,-0.004853918306026044,-0.2352214484213282,-0.4355915905987725,0.336561696912122,1.322507037047546,0.1759517626001862,0.1664676770278229,1.369723106355549,0.09893132006702861,0.1137041905609726,-0.3229411623619716,0.2653236584440284,-0.1234408354934987,0.2460659999118334,-0.5019278908753841,-0.2052094280296635,816.3369963369963,808.2783882783883,792.5641025641025,811.0989010989011,858.6446886446887,846.5567765567765,-0.455872,0.038269,0.884705,0.687866,-0.149536,-0.112152,1,1,1,1,1,97.000000
2025-03-27 12:58:41.855,0.1731826929154051,0.07549210024172991,-0.1975630632585595,0.2037350343038808,-0.004853918306026044,-0.2352214484213282,-0.4355915905987725,0.336561696912122,1.322507037047546,0.1759517626001862,0.1664676770278229,1.369723106355549,0.09893132006702861,0.1137041905609726,-0.3229411623619716,0.2653236584440284,-0.1234408354934987,0.2460659999118334,-0.5019278908753841,-0.2052094280296635,808.2783882783883,808.2783882783883,796.1904761904763,798.2051282051282,835.2747252747253,1064.945054945055,-0.455872,0.038269,0.884705,0.687866,-0.149536,-0.112152,1,1,1,1,1,97.000000
2025-03-27 12:58:41.856,0.1731826929154051,0.07549210024172991,-0.1975630632585595,0.2037350343038808,-0.004853918306026044,-0.2352214484213282,-0.4355915905987725,0.336561696912122,1.322507037047546,0.1759517626001862,0.1664676770278229,1.369723106355549,0.09893132006702861,0.1137041905609726,-0.3229411623619716,0.2653236584440284,-0.1234408354934987,0.2460659999118334,-0.5019278908753841,-0.2052094280296635,810.6959706959707,796.1904761904763,799.0109890109891,798.2051282051282,786.1172161172161,911.4285714285714,-0.455872,0.038269,0.884705,0.687866,-0.149536,-0.112152,1,1,1,1,1,97.000000
2025-03-27 12:58:41.856,0.2036603871300703,0.09712755416966205,-0.1487482496913381,0.227395085491987,-0.001837903140360641,-0.2366406273661866,-0.4185286798711407,0.3503316318408934,1.322507037047546,0.1607788108161809,0.1881360472817389,1.375003041900269,0.1118488369590887,0.125326110933817,-0.3011956105194967,0.2816041536281466,-0.1053839604738666,0.2338945630570003,-0.5103653369050603,-0.2050315625677475,821.5750915750916,795.3846153846154,803.040293040293,811.5018315018315,732.9304029304029,593.5164835164835,-0.455872,0.038269,0.884705,0.687866,-0.149536,-0.112152,1,1,1,1,1,97.000000
2025-03-27 12:58:41.857,0.2036603871300703,0.09712755416966205,-0.1487482496913381,0.227395085491987,-0.001837903140360641,-0.2366406273661866,-0.4185286798711407,0.3503316318408934,1.322507037047546,0.1607788108161809,0.1881360472817389,1.375003041900269,0.1118488369590887,0.125326110933817,-0.3011956105194967,0.2816041536281466,-0.1053839604738666,0.2338945630570003,-0.5103653369050603,-0.2050315625677475,824.7985347985348,801.025641025641,797.3992673992674,809.0842490842491,758.3150183150184,542.3443223443223,-0.455872,0.038269,0.884705,0.687866,-0.149536,-0.112152,1,1,1,1,1,97.000000
2025-03-27 12:58:41.857,0.2036603871300703,0.09712755416966205,-0.1487482496913381,0.227395085491987,-0.001837903140360641,-0.2366406273661866,-0.4185286798711407,0.3503316318408934,1.322507037047546,0.1607788108161809,0.1881360472817389,1.375003041900269,0.1118488369590887,0.125326110933817,-0.3011956105194967,0.2816041536281466,-0.1053839604738666,0.2338945630570003,-0.5103653369050603,-0.2050315625677475,820.7692307692308,808.2783882783883,793.7728937728938,799.8168498168499,795.7875457875458,957.7655677655678,-0.455872,0.038269,0.884705,0.687866,-0.149536,-0.112152,1,1,1,1,1,97.000000
2025-03-27 12:58:41.857,0.2036603871300703,0.09712755416966205,-0.1487482496913381,0.227395085491987,-0.001837903140360641,-0.2366406273661866,-0.4185286798711407,0.3503316318408934,1.322507037047546,0.1607788108161809,0.1881360472817389,1.375003041900269,0.1118488369590887,0.125326110933817,-0.3011956105194967,0.2816041536281466,-0.1053839604738666,0.2338945630570003,-0.5103653369050603,-0.2050315625677475,816.3369963369963,801.4285714285714,792.967032967033,796.996336996337,730.5128205128206,1045.201465201465,-0.455872,0.038269,0.884705,0.687866,-0.149536,-0.112152,1,1,1,1,1,97.000000
2025-03-27 12:58:41.857,0.2036603871300703,0.09712755416966205,-0.1487482496913381,0.227395085491987,-0.001837903140360641,-0.2366406273661866,-0.4185286798711407,0.3503316318408934,1.322507037047546,0.1607788108161809,0.1881360472817389,1.375003041900269,0.1118488369590887,0.125326110933817,-0.3011956105194967,0.2816041536281466,-0.1053839604738666,0.2338945630570003,-0.5103653369050603,-0.2050315625677475,809.8901098901099,793.3699633699634,790.1465201465202,792.967032967033,812.7106227106227,820.7692307692308,-0.455872,0.038269,0.884705,0.687866,-0.149536,-0.112152,1,1,1,1,1,97.000000
2025-03-27 12:58:41.858,0.2036603871300703,0.09712755416966205,-0.1487482496913381,0.227395085491987,-0.001837903140360641,-0.2366406273661866,-0.4185286798711407,0.3503316318408934,1.322507037047546,0.1607788108161809,0.1881360472817389,1.375003041900269,0.1118488369590887,0.125326110933817,-0.3011956105194967,0.2816041536281466,-0.1053839604738666,0.2338945630570003,-0.5103653369050603,-0.2050315625677475,809.4871794871796,799.8168498168499,797.3992673992674,794.1758241758242,913.040293040293,739.3772893772893,-0.455872,0.038269,0.884705,0.687866,-0.149536,-0.112152,1,1,1,1,1,97.000000
2025-03-27 12:58:41.858,0.2036603871300703,0.09712755416966205,-0.1487482496913381,0.227395085491987,-0.001837903140360641,-0.2366406273661866,-0.4185286798711407,0.3503316318408934,1.322507037047546,0.1607788108161809,0.1881360472817389,1.375003041900269,0.1118488369590887,0.125326110933817,-0.3011956105194967,0.2816041536281466,-0.1053839604738666,0.2338945630570003,-0.5103653369050603,-0.2050315625677475,807.8754578754579,802.6373626373627,796.996336996337,791.7582417582418,908.6080586080586,743.0036630036631,-0.455872,0.038269,0.884705,0.687866,-0.149536,-0.112152,1,1,1,1,1,97.000000
2025-03-27 12:58:41.858,0.2036603871300703,0.09712755416966205,-0.1487482496913381,0.227395085491987,-0.001837903140360641,-0.2366406273661866,-0.4185286798711407,0.3503316318408934,1.322507037047546,0.1607788108161809,0.1881360472817389,1.375003041900269,0.1118488369590887,0.125326110933817,-0.3011956105194967,0.2816041536281466,-0.1053839604738666,0.2338945630570003,-0.5103653369050603,-0.2050315625677475,799.8168498168499,797.3992673992674,794.981684981685,783.6996336996338,889.2673992673992,738.974358974359,-0.455872,0.038269,0.884705,0.687866,-0.149536,-0.112152,1,1,1,1,1,97.000000
2025-03-27 12:58:41.858,0.2036603871300703,0.09712755416966205,-0.1487482496913381,0.227395085491987,-0.001837903140360641,-0.2366406273661866,-0.4185286798711407,0.3503316318408934,1.322507037047546,0.1607788108161809,0.1881360472817389,1.375003041900269,0.1118488369590887,0.125326110933817,-0.3011956105194967,0.2816041536281466,-0.1053839604738666,0.2338945630570003,-0.5103653369050603,-0.2050315625677475,793.7728937728938,796.1904761904763,798.6080586080586,779.2673992673992,947.6923076923077,757.9120879120879,-0.455872,0.038269,0.884705,0.687866,-0.149536,-0.112152,1,1,1,1,1,97.000000
2025-03-27 12:58:41.859,0.2036603871300703,0.09712755416966205,-0.1487482496913381,0.227395085491987,-0.001837903140360641,-0.2366406273661866,-0.4185286798711407,0.3503316318408934,1.322507037047546,0.1607788108161809,0.1881360472817389,1.375003041900269,0.1118488369590887,0.125326110933817,-0.3011956105194967,0.2816041536281466,-0.1053839604738666,0.2338945630570003,-0.5103653369050603,-0.2050315625677475,793.7728937728938,796.5934065934066,797.3992673992674,784.5054945054945,953.3333333333334,700.2930402930403,-0.445679,0.038696,0.880005,0.097198,-0.919647,-0.381317,1,1,1,1,1,97.000000
2025-03-27 12:58:41.859,0.2036603871300703,0.09712755416966205,-0.1487482496913381,0.227395085491987,-0.001837903140360641,-0.2366406273661866,-0.4185286798711407,0.3503316318408934,1.322507037047546,0.1607788108161809,0.1881360472817389,1.375003041900269,0.1118488369590887,0.125326110933817,-0.3011956105194967,0.2816041536281466,-0.1053839604738666,0.2338945630570003,-0.5103653369050603,-0.2050315625677475,796.1904761904763,794.981684981685,799.8168498168499,789.3406593406594,856.2271062271062,698.2783882783883,-0.445679,0.038696,0.880005,0.097198,-0.919647,-0.381317,1,1,1,1,1,97.000000
2025-03-27 12:58:41.860,0.2036603871300703,0.09712755416966205,-0.1487482496913381,0.227395085491987,-0.001837903140360641,-0.2366406273661866,-0.4185286798711407,0.3503316318408934,1.322507037047546,0.1607788108161809,0.1881360472817389,1.375003041900269,0.1118488369590887,0.125326110933817,-0.3011956105194967,0.2816041536281466,-0.1053839604738666,0.2338945630570003,-0.5103653369050603,-0.2050315625677475,798.2051282051282,791.7582417582418,801.4285714285714,786.5201465201466,757.5091575091575,672.4908424908425,-0.445679,0.038696,0.880005,0.097198,-0.919647,-0.381317,1,1,1,1,1,97.000000
2025-03-27 12:58:41.860,0.2036603871300703,0.09712755416966205,-0.1487482496913381,0.227395085491987,-0.001837903140360641,-0.2366406273661866,-0.4185286798711407,0.3503316318408934,1.322507037047546,0.1607788108161809,0.1881360472817389,1.375003041900269,0.1118488369590887,0.125326110933817,-0.3011956105194967,0.2816041536281466,-0.1053839604738666,0.2338945630570003,-0.5103653369050603,-0.2050315625677475,796.5934065934066,794.5787545787546,801.8315018315019,791.3553113553114,731.7216117216118,603.1868131868132,-0.445679,0.038696,0.880005,0.097198,-0.919647,-0.381317,1,1,1,1,1,97.000000
2025-03-27 12:58:41.860,0.2036603871300703,0.09712755416966205,-0.1487482496913381,0.227395085491987,-0.001837903140360641,-0.2366406273661866,-0.4185286798711407,0.3503316318408934,1.322507037047546,0.1607788108161809,0.1881360472817389,1.375003041900269,0.1118488369590887,0.125326110933817,-0.3011956105194967,0.2816041536281466,-0.1053839604738666,0.2338945630570003,-0.5103653369050603,-0.2050315625677475,793.3699633699634,798.6080586080586,805.0549450549451,796.996336996337,816.7399267399268,634.6153846153846,-0.445679,0.038696,0.880005,0.097198,-0.919647,-0.381317,1,1,1,1,1,97.000000
2025-03-27 12:58:41.860,0.2036603871300703,0.09712755416966205,-0.1487482496913381,0.227395085491987,-0.001837903140360641,-0.2366406273661866,-0.4185286798711407,0.3503316318408934,1.322507037047546,0.1607788108161809,0.1881360472817389,1.375003041900269,0.1118488369590887,0.125326110933817,-0.3011956105194967,0.2816041536281466,-0.1053839604738666,0.2338945630570003,-0.5103653369050603,-0.2050315625677475,793.3699633699634,802.2344322344322,807.4725274725275,798.2051282051282,871.1355311355312,983.1501831501831,-0.445679,0.038696,0.880005,0.097198,-0.919647,-0.381317,1,1,1,1,1,97.000000
2025-03-27 12:58:41.861,0.2036603871300703,0.09712755416966205,-0.1487482496913381,0.227395085491987,-0.001837903140360641,-0.2366406273661866,-0.4185286798711407,0.3503316318408934,1.322507037047546,0.1607788108161809,0.1881360472817389,1.375003041900269,0.1118488369590887,0.125326110933817,-0.3011956105194967,0.2816041536281466,-0.1053839604738666,0.2338945630570003,-0.5103653369050603,-0.2050315625677475,796.5934065934066,802.6373626373627,805.8608058608058,802.6373626373627,843.3333333333334,1257.948717948718,-0.445679,0.038696,0.880005,0.097198,-0.919647,-0.381317,1,1,1,1,1,97.000000
2025-03-27 12:58:41.861,0.2036603871300703,0.09712755416966205,-0.1487482496913381,0.227395085491987,-0.001837903140360641,-0.2366406273661866,-0.4185286798711407,0.3503316318408934,1.322507037047546,0.1607788108161809,0.1881360472817389,1.375003041900269,0.1118488369590887,0.125326110933817,-0.3011956105194967,0.2816041536281466,-0.1053839604738666,0.2338945630570003,-0.5103653369050603,-0.2050315625677475,795.7875457875458,784.9084249084249,801.4285714285714,803.8461538461539,859.047619047619,1151.172161172161,-0.445679,0.038696,0.880005,0.097198,-0.919647,-0.381317,1,1,1,1,1,97.000000
2025-03-27 12:58:41.861,0.2036603871300703,0.09712755416966205,-0.1487482496913381,0.227395085491987,-0.001837903140360641,-0.2366406273661866,-0.4185286798711407,0.3503316318408934,1.322507037047546,0.1607788108161809,0.1881360472817389,1.375003041900269,0.1118488369590887,0.125326110933817,-0.3011956105194967,0.2816041536281466,-0.1053839604738666,0.2338945630570003,-0.5103653369050603,-0.2050315625677475,801.025641025641,782.893772893773,803.040293040293,808.6813186813187,840.1098901098901,713.992673992674,-0.445679,0.038696,0.880005,0.097198,-0.919647,-0.381317,1,1,1,1,1,97.000000
2025-03-27 12:58:41.861,0.2036603871300703,0.09712755416966205,-0.1487482496913381,0.227395085491987,-0.001837903140360641,-0.2366406273661866,-0.4185286798711407,0.3503316318408934,1.322507037047546,0.1607788108161809,0.1881360472817389,1.375003041900269,0.1118488369590887,0.125326110933817,-0.3011956105194967,0.2816041536281466,-0.1053839604738666,0.2338945630570003,-0.5103653369050603,-0.2050315625677475,805.8608058608058,801.8315018315019,804.2490842490843,809.0842490842491,821.1721611721612,642.2710622710623,-0.445679,0.038696,0.880005,0.097198,-0.919647,-0.381317,1,1,1,1,1,97.000000
2025-03-27 12:58:41.862,0.2036603871300703,0.09712755416966205,-0.1487482496913381,0.227395085491987,-0.001837903140360641,-0.2366406273661866,-0.4185286798711407,0.3503316318408934,1.322507037047546,0.1607788108161809,0.1881360472817389,1.375003041900269,0.1118488369590887,0.125326110933817,-0.3011956105194967,0.2816041536281466,-0.1053839604738666,0.2338945630570003,-0.5103653369050603,-0.2050315625677475,802.6373626373627,802.2344322344322,803.4432234432235,805.0549450549451,866.7032967032967,798.6080586080586,-0.445679,0.038696,0.880005,0.097198,-0.919647,-0.381317,1,1,1,1,1,97.000000
2025-03-27 12:58:41.862,0.2036603871300703,0.09712755416966205,-0.1487482496913381,0.227395085491987,-0.001837903140360641,-0.2366406273661866,-0.4185286798711407,0.3503316318408934,1.322507037047546,0.1607788108161809,0.1881360472817389,1.375003041900269,0.1118488369590887,0.125326110933817,-0.3011956105194967,0.2816041536281466,-0.1053839604738666,0.2338945630570003,-0.5103653369050603,-0.2050315625677475,805.0549450549451,797.8021978021978,800.2197802197802,804.2490842490843,876.3736263736264,695.4578754578755,-0.445679,0.038696,0.880005,0.097198,-0.919647,-0.381317,1,1,1,1,1,97.000000
2025-03-27 12:58:41.862,0.2036603871300703,0.09712755416966205,-0.1487482496913381,0.227395085491987,-0.001837903140360641,-0.2366406273661866,-0.4185286798711407,0.3503316318408934,1.322507037047546,0.1607788108161809,0.1881360472817389,1.375003041900269,0.1118488369590887,0.125326110933817,-0.3011956105194967,0.2816041536281466,-0.1053839604738666,0.2338945630570003,-0.5103653369050603,-0.2050315625677475,810.6959706959707,811.0989010989011,797.3992673992674,805.8608058608058,882.4175824175825,800.6227106227107,-0.453552,0.037048,0.881165,0.515900,-0.732727,-0.717773,1,1,1,1,1,97.000000
2025-03-27 12:58:41.863,0.2036603871300703,0.09712755416966205,-0.1487482496913381,0.227395085491987,-0.001837903140360641,-0.2366406273661866,-0.4185286798711407,0.3503316318408934,1.322507037047546,0.1607788108161809,0.1881360472817389,1.375003041900269,0.1118488369590887,0.125326110933817,-0.3011956105194967,0.2816041536281466,-0.1053839604738666,0.2338945630570003,-0.5103653369050603,-0.2050315625677475,810.2930402930403,811.0989010989011,796.5934065934066,807.4725274725275,848.974358974359,1019.413919413919,-0.453552,0.037048,0.881165,0.515900,-0.732727,-0.717773,1,1,1,1,1,97.000000
2025-03-27 12:58:41.863,0.2036603871300703,0.09712755416966205,-0.1487482496913381,0.227395085491987,-0.001837903140360641,-0.2366406273661866,-0.4185286798711407,0.3503316318408934,1.322507037047546,0.1607788108161809,0.1881360472817389,1.375003041900269,0.1118488369590887,0.125326110933817,-0.3011956105194967,0.2816041536281466,-0.1053839604738666,0.2338945630570003,-0.5103653369050603,-0.2050315625677475,811.0989010989011,797.3992673992674,799.4139194139194,812.3076923076924,762.3443223443223,742.1978021978023,-0.453552,0.037048,0.881165,0.515900,-0.732727,-0.717773,1,1,1,1,1,97.000000
2025-03-27 12:58:41.863,0.2036603871300703,0.09712755416966205,-0.1487482496913381,0.227395085491987,-0.001837903140360641,-0.2366406273661866,-0.4185286798711407,0.3503316318408934,1.322507037047546,0.1607788108161809,0.1881360472817389,1.375003041900269,0.1118488369590887,0.125326110933817,-0.3011956105194967,0.2816041536281466,-0.1053839604738666,0.2338945630570003,-0.5103653369050603,-0.2050315625677475,809.4871794871796,796.996336996337,803.040293040293,813.5164835164835,757.9120879120879,637.032967032967,-0.453552,0.037048,0.881165,0.515900,-0.732727,-0.717773,1,1,1,1,1,97.000000
2025-03-27 12:58:41.863,0.2036603871300703,0.09712755416966205,-0.1487482496913381,0.227395085491987,-0.001837903140360641,-0.2366406273661866,-0.4185286798711407,0.3503316318408934,1.322507037047546,0.1607788108161809,0.1881360472817389,1.375003041900269,0.1118488369590887,0.125326110933817,-0.3011956105194967,0.2816041536281466,-0.1053839604738666,0.2338945630570003,-0.5103653369050603,-0.2050315625677475,806.2637362637363,803.040293040293,801.8315018315019,810.6959706959707,791.3553113553114,695.4578754578755,-0.453552,0.037048,0.881165,0.515900,-0.732727,-0.717773,1,1,1,1,1,97.000000
2025-03-27 12:58:41.864,0.2343630103527763,0.1131473878804459,-0.1187833493844299,0.254385640617909,0.005577839566023109,-0.2383613313356442,-0.4048726936591197,0.3527882627694095,1.322507037047546,0.1331104264453146,0.1932637879143863,1.375864086395504,0.1266400691568944,0.1383672984915668,-0.2760706379400663,0.2997041223483796,-0.09711247821975325,0.2197868862571435,-0.5163291435973936,-0.2052103827163953,808.6813186813187,816.7399267399268,801.8315018315019,815.1282051282052,824.7985347985348,1010.549450549451,-0.453552,0.037048,0.881165,0.515900,-0.732727,-0.717773,1,1,1,1,1,97.000000
2025-03-27 12:58:41.864,0.2343630103527763,0.1131473878804459,-0.1187833493844299,0.254385640617909,0.005577839566023109,-0.2383613313356442,-0.4048726936591197,0.3527882627694095,1.322507037047546,0.1331104264453146,0.1932637879143863,1.375864086395504,0.1266400691568944,0.1383672984915668,-0.2760706379400663,0.2997041223483796,-0.09711247821975325,0.2197868862571435,-0.5163291435973936,-0.2052103827163953,803.4432234432235,811.5018315018315,799.4139194139194,815.934065934066,819.5604395604396,1229.340659340659,-0.453552,0.037048,0.881165,0.515900,-0.732727,-0.717773,1,1,1,1,1,97.000000
2025-03-27 12:58:41.864,0.2343630103527763,0.1131473878804459,-0.1187833493844299,0.254385640617909,0.005577839566023109,-0.2383613313356442,-0.4048726936591197,0.3527882627694095,1.322507037047546,0.1331104264453146,0.1932637879143863,1.375864086395504,0.1266400691568944,0.1383672984915668,-0.2760706379400663,0.2997041223483796,-0.09711247821975325,0.2197868862571435,-0.5163291435973936,-0.2052103827163953,803.8461538461539,789.7435897435897,799.0109890109891,812.3076923076924,817.1428571428571,792.1611721611722,-0.453552,0.037048,0.881165,0.515900,-0.732727,-0.717773,1,1,1,1,1,97.000000
2025-03-27 12:58:41.865,0.2343630103527763,0.1131473878804459,-0.1187833493844299,0.254385640617909,0.005577839566023109,-0.2383613313356442,-0.4048726936591197,0.3527882627694095,1.322507037047546,0.1331104264453146,0.1932637879143863,1.375864086395504,0.1266400691568944,0.1383672984915668,-0.2760706379400663,0.2997041223483796,-0.09711247821975325,0.2197868862571435,-0.5163291435973936,-0.2052103827163953,810.2930402930403,796.996336996337,798.2051282051282,815.1282051282052,829.6336996336996,560.4761904761905,-0.453552,0.037048,0.881165,0.515900,-0.732727,-0.717773,1,1,1,1,1,97.000000
2025-03-27 12:58:41.865,0.2343630103527763,0.1131473878804459,-0.1187833493844299,0.254385640617909,0.005577839566023109,-0.2383613313356442,-0.4048726936591197,0.3527882627694095,1.322507037047546,0.1331104264453146,0.1932637879143863,1.375864086395504,0.1266400691568944,0.1383672984915668,-0.2760706379400663,0.2997041223483796,-0.09711247821975325,0.2197868862571435,-0.5163291435973936,-0.2052103827163953,805.0549450549451,811.5018315018315,797.8021978021978,810.2930402930403,844.1391941391942,823.5897435897436,-0.453552,0.037048,0.881165,0.515900,-0.732727,-0.717773,1,1,1,1,1,97.000000
2025-03-27 12:58:41.865,0.2343630103527763,0.1131473878804459,-0.1187833493844299,0.254385640617909,0.005577839566023109,-0.2383613313356442,-0.4048726936591197,0.3527882627694095,1.322507037047546,0.1331104264453146,0.1932637879143863,1.375864086395504,0.1266400691568944,0.1383672984915668,-0.2760706379400663,0.2997041223483796,-0.09711247821975325,0.2197868862571435,-0.5163291435973936,-0.2052103827163953,796.1904761904763,795.3846153846154,796.1904761904763,799.8168498168499,842.1245421245421,805.0549450549451,-0.453552,0.037048,0.881165,0.515900,-0.732727,-0.717773,1,1,1,1,1,97.000000
2025-03-27 12:58:41.865,0.2343630103527763,0.1131473878804459,-0.1187833493844299,0.254385640617909,0.005577839566023109,-0.2383613313356442,-0.4048726936591197,0.3527882627694095,1.322507037047546,0.1331104264453146,0.1932637879143863,1.375864086395504,0.1266400691568944,0.1383672984915668,-0.2760706379400663,0.2997041223483796,-0.09711247821975325,0.2197868862571435,-0.5163291435973936,-0.2052103827163953,794.5787545787546,788.5347985347986,792.967032967033,794.1758241758242,806.2637362637363,632.6007326007326,-0.453552,0.037048,0.881165,0.515900,-0.732727,-0.717773,1,1,1,1,1,97.000000
2025-03-27 12:58:41.866,0.2343630103527763,0.1131473878804459,-0.1187833493844299,0.254385640617909,0.005577839566023109,-0.2383613313356442,-0.4048726936591197,0.3527882627694095,1.322507037047546,0.1331104264453146,0.1932637879143863,1.375864086395504,0.1266400691568944,0.1383672984915668,-0.2760706379400663,0.2997041223483796,-0.09711247821975325,0.2197868862571435,-0.5163291435973936,-0.2052103827163953,793.3699633699634,796.1904761904763,793.7728937728938,789.7435897435897,833.2600732600733,604.7985347985348,-0.455505,0.029480,0.876343,0.553284,-0.179443,-0.717773,1,1,1,1,1,97.000000
2025-03-27 12:58:41.867,0.2343630103527763,0.1131473878804459,-0.1187833493844299,0.254385640617909,0.005577839566023109,-0.2383613313356442,-0.4048726936591197,0.3527882627694095,1.322507037047546,0.1331104264453146,0.1932637879143863,1.375864086395504,0.1266400691568944,0.1383672984915668,-0.2760706379400663,0.2997041223483796,-0.09711247821975325,0.2197868862571435,-0.5163291435973936,-0.2052103827163953,796.5934065934066,799.4139194139194,797.3992673992674,795.3846153846154,805.4578754578755,677.3260073260074,-0.455505,0.029480,0.876343,0.553284,-0.179443,-0.717773,1,1,1,1,1,97.000000
2025-03-27 12:58:41.867,0.2343630103527763,0.1131473878804459,-0.1187833493844299,0.254385640617909,0.005577839566023109,-0.2383613313356442,-0.4048726936591197,0.3527882627694095,1.322507037047546,0.1331104264453146,0.1932637879143863,1.375864086395504,0.1266400691568944,0.1383672984915668,-0.2760706379400663,0.2997041223483796,-0.09711247821975325,0.2197868862571435,-0.5163291435973936,-0.2052103827163953,792.1611721611722,800.2197802197802,796.996336996337,793.7728937728938,766.3736263736264,691.8315018315019,-0.455505,0.029480,0.876343,0.553284,-0.179443,-0.717773,1,1,1,1,1,97.000000
2025-03-27 12:58:41.867,0.2343630103527763,0.1131473878804459,-0.1187833493844299,0.254385640617909,0.005577839566023109,-0.2383613313356442,-0.4048726936591197,0.3527882627694095,1.322507037047546,0.1331104264453146,0.1932637879143863,1.375864086395504,0.1266400691568944,0.1383672984915668,-0.2760706379400663,0.2997041223483796,-0.09711247821975325,0.2197868862571435,-0.5163291435973936,-0.2052103827163953,786.5201465201466,799.0109890109891,796.996336996337,792.1611721611722,794.5787545787546,699.0842490842491,-0.455505,0.029480,0.876343,0.553284,-0.179443,-0.717773,1,1,1,1,1,97.000000
2025-03-27 12:58:41.867,0.2343630103527763,0.1131473878804459,-0.1187833493844299,0.254385640617909,0.005577839566023109,-0.2383613313356442,-0.4048726936591197,0.3527882627694095,1.322507037047546,0.1331104264453146,0.1932637879143863,1.375864086395504,0.1266400691568944,0.1383672984915668,-0.2760706379400663,0.2997041223483796,-0.09711247821975325,0.2197868862571435,-0.5163291435973936,-0.2052103827163953,784.5054945054945,796.1904761904763,794.981684981685,788.5347985347986,792.967032967033,693.040293040293,-0.455505,0.029480,0.876343,0.553284,-0.179443,-0.717773,1,1,1,1,1,97.000000
2025-03-27 12:58:41.868,0.2343630103527763,0.1131473878804459,-0.1187833493844299,0.254385640617909,0.005577839566023109,-0.2383613313356442,-0.4048726936591197,0.3527882627694095,1.322507037047546,0.1331104264453146,0.1932637879143863,1.375864086395504,0.1266400691568944,0.1383672984915668,-0.2760706379400663,0.2997041223483796,-0.09711247821975325,0.2197868862571435,-0.5163291435973936,-0.2052103827163953,782.0879120879121,803.040293040293,792.1611721611722,783.2967032967033,774.4322344322345,950.9157509157509,-0.455505,0.029480,0.876343,0.553284,-0.179443,-0.717773,1,1,1,1,1,97.000000
2025-03-27 12:58:41.868,0.2343630103527763,0.1131473878804459,-0.1187833493844299,0.254385640617909,0.005577839566023109,-0.2383613313356442,-0.4048726936591197,0.3527882627694095,1.322507037047546,0.1331104264453146,0.1932637879143863,1.375864086395504,0.1266400691568944,0.1383672984915668,-0.2760706379400663,0.2997041223483796,-0.09711247821975325,0.2197868862571435,-0.5163291435973936,-0.2052103827163953,783.6996336996338,801.8315018315019,795.7875457875458,786.9230769230769,821.1721611721612,1183.406593406593,-0.455505,0.029480,0.876343,0.553284,-0.179443,-0.717773,1,1,1,1,1,97.000000
2025-03-27 12:58:41.868,0.2343630103527763,0.1131473878804459,-0.1187833493844299,0.254385640617909,0.005577839566023109,-0.2383613313356442,-0.4048726936591197,0.3527882627694095,1.322507037047546,0.1331104264453146,0.1932637879143863,1.375864086395504,0.1266400691568944,0.1383672984915668,-0.2760706379400663,0.2997041223483796,-0.09711247821975325,0.2197868862571435,-0.5163291435973936,-0.2052103827163953,783.2967032967033,792.1611721611722,800.2197802197802,790.1465201465202,839.3040293040293,874.3589743589744,-0.455505,0.029480,0.876343,0.553284,-0.179443,-0.717773,1,1,1,1,1,97.000000
2025-03-27 12:58:41.868,0.2343630103527763,0.1131473878804459,-0.1187833493844299,0.254385640617909,0.005577839566023109,-0.2383613313356442,-0.4048726936591197,0.3527882627694095,1.322507037047546,0.1331104264453146,0.1932637879143863,1.375864086395504,0.1266400691568944,0.1383672984915668,-0.2760706379400663,0.2997041223483796,-0.09711247821975325,0.2197868862571435,-0.5163291435973936,-0.2052103827163953,785.3113553113553,797.8021978021978,805.4578754578755,792.967032967033,799.0109890109891,575.3846153846154,-0.455505,0.029480,0.876343,0.553284,-0.179443,-0.717773,1,1,1,1,1,97.000000
2025-03-27 12:58:41.869,0.2343630103527763,0.1131473878804459,-0.1187833493844299,0.254385640617909,0.005577839566023109,-0.2383613313356442,-0.4048726936591197,0.3527882627694095,1.322507037047546,0.1331104264453146,0.1932637879143863,1.375864086395504,0.1266400691568944,0.1383672984915668,-0.2760706379400663,0.2997041223483796,-0.09711247821975325,0.2197868862571435,-0.5163291435973936,-0.2052103827163953,789.7435897435897,810.2930402930403,803.8461538461539,792.967032967033,809.0842490842491,666.0439560439561,-0.455505,0.029480,0.876343,0.553284,-0.179443,-0.717773,1,1,1,1,1,97.000000
2025-03-27 12:58:41.869,0.2343630103527763,0.1131473878804459,-0.1187833493844299,0.254385640617909,0.005577839566023109,-0.2383613313356442,-0.4048726936591197,0.3527882627694095,1.322507037047546,0.1331104264453146,0.1932637879143863,1.375864086395504,0.1266400691568944,0.1383672984915668,-0.2760706379400663,0.2997041223483796,-0.09711247821975325,0.2197868862571435,-0.5163291435973936,-0.2052103827163953,792.967032967033,811.0989010989011,800.6227106227107,798.6080586080586,872.3443223443223,778.0586080586081,-0.455505,0.029480,0.876343,0.553284,-0.179443,-0.717773,1,1,1,1,1,97.000000
2025-03-27 12:58:41.869,0.2343630103527763,0.1131473878804459,-0.1187833493844299,0.254385640617909,0.005577839566023109,-0.2383613313356442,-0.4048726936591197,0.3527882627694095,1.322507037047546,0.1331104264453146,0.1932637879143863,1.375864086395504,0.1266400691568944,0.1383672984915668,-0.2760706379400663,0.2997041223483796,-0.09711247821975325,0.2197868862571435,-0.5163291435973936,-0.2052103827163953,795.3846153846154,810.2930402930403,797.3992673992674,805.0549450549451,900.952380952381,802.6373626373627,-0.455505,0.029480,0.876343,0.553284,-0.179443,-0.717773,1,1,1,1,1,97.000000
2025-03-27 12:58:41.891,0.2343630103527763,0.1131473878804459,-0.1187833493844299,0.254385640617909,0.005577839566023109,-0.2383613313356442,-0.4048726936591197,0.3527882627694095,1.322507037047546,0.1331104264453146,0.1932637879143863,1.375864086395504,0.1266400691568944,0.1383672984915668,-0.2760706379400663,0.2997041223483796,-0.09711247821975325,0.2197868862571435,-0.5163291435973936,-0.2052103827163953,792.1611721611722,809.8901098901099,801.025641025641,801.025641025641,850.1831501831502,1022.637362637363,-0.454773,0.035828,0.874878,0.695343,-0.164490,-0.747681,1,1,1,1,1,97.000000
2025-03-27 12:58:41.891,0.2343630103527763,0.1131473878804459,-0.1187833493844299,0.254385640617909,0.005577839566023109,-0.2383613313356442,-0.4048726936591197,0.3527882627694095,1.322507037047546,0.1331104264453146,0.1932637879143863,1.375864086395504,0.1266400691568944,0.1383672984915668,-0.2760706379400663,0.2997041223483796,-0.09711247821975325,0.2197868862571435,-0.5163291435973936,-0.2052103827163953,794.5787545787546,800.2197802197802,805.8608058608058,802.6373626373627,822.3809523809524,1126.190476190476,-0.454773,0.035828,0.874878,0.695343,-0.164490,-0.747681,1,1,1,1,1,97.000000
2025-03-27 12:58:41.892,0.2343630103527763,0.1131473878804459,-0.1187833493844299,0.254385640617909,0.005577839566023109,-0.2383613313356442,-0.4048726936591197,0.3527882627694095,1.322507037047546,0.1331104264453146,0.1932637879143863,1.375864086395504,0.1266400691568944,0.1383672984915668,-0.2760706379400663,0.2997041223483796,-0.09711247821975325,0.2197868862571435,-0.5163291435973936,-0.2052103827163953,797.8021978021978,796.1904761904763,800.6227106227107,807.4725274725275,881.6117216117217,896.5201465201466,-0.454773,0.035828,0.874878,0.695343,-0.164490,-0.747681,1,1,1,1,1,97.000000
2025-03-27 12:58:41.892,0.2343630103527763,0.1131473878804459,-0.1187833493844299,0.254385640617909,0.005577839566023109,-0.2383613313356442,-0.4048726936591197,0.3527882627694095,1.322507037047546,0.1331104264453146,0.1932637879143863,1.375864086395504,0.1266400691568944,0.1383672984915668,-0.2760706379400663,0.2997041223483796,-0.09711247821975325,0.2197868862571435,-0.5163291435973936,-0.2052103827163953,798.6080586080586,796.1904761904763,795.7875457875458,809.4871794871796,874.7619047619048,730.1098901098901,-0.454773,0.035828,0.874878,0.695343,-0.164490,-0.747681,1,1,1,1,1,97.000000
2025-03-27 12:58:41.892,0.2343630103527763,0.1131473878804459,-0.1187833493844299,0.254385640617909,0.005577839566023109,-0.2383613313356442,-0.4048726936591197,0.3527882627694095,1.322507037047546,0.1331104264453146,0.1932637879143863,1.375864086395504,0.1266400691568944,0.1383672984915668,-0.2760706379400663,0.2997041223483796,-0.09711247821975325,0.2197868862571435,-0.5163291435973936,-0.2052103827163953,805.0549450549451,802.2344322344322,800.6227106227107,817.1428571428571,889.2673992673992,748.2417582417582,-0.454773,0.035828,0.874878,0.695343,-0.164490,-0.747681,1,1,1,1,1,97.000000
2025-03-27 12:58:41.892,0.2343630103527763,0.1131473878804459,-0.1187833493844299,0.254385640617909,0.005577839566023109,-0.2383613313356442,-0.4048726936591197,0.3527882627694095,1.322507037047546,0.1331104264453146,0.1932637879143863,1.375864086395504,0.1266400691568944,0.1383672984915668,-0.2760706379400663,0.2997041223483796,-0.09711247821975325,0.2197868862571435,-0.5163291435973936,-0.2052103827163953,809.8901098901099,803.8461538461539,801.8315018315019,821.5750915750916,921.0989010989011,1065.347985347985,-0.454773,0.035828,0.874878,0.695343,-0.164490,-0.747681,1,1,1,1,1,97.000000
2025-03-27 12:58:41.893,0.2343630103527763,0.1131473878804459,-0.1187833493844299,0.254385640617909,0.005577839566023109,-0.2383613313356442,-0.4048726936591197,0.3527882627694095,1.322507037047546,0.1331104264453146,0.1932637879143863,1.375864086395504,0.1266400691568944,0.1383672984915668,-0.2760706379400663,0.2997041223483796,-0.09711247821975325,0.2197868862571435,-0.5163291435973936,-0.2052103827163953,815.5311355311355,800.6227106227107,799.8168498168499,825.2014652014652,828.021978021978,1141.501831501831,-0.454773,0.035828,0.874878,0.695343,-0.164490,-0.747681,1,1,1,1,1,97.000000
2025-03-27 12:58:41.893,0.2657128658030499,0.1287061991415472,-0.109899017486509,0.2811431771260113,0.009643773927727549,-0.2466556355687459,-0.3996834276145309,0.3519022308324993,1.320403487344822,0.1330731590326802,0.1932637879143863,1.369659039680565,0.1506573342908367,0.1480735572073106,-0.2509748096834195,0.3182444415782716,-0.1005651442384817,0.2044037416828089,-0.5160834504465507,-0.2032040761432537,819.5604395604396,799.0109890109891,801.025641025641,825.6043956043957,801.025641025641,865.8974358974359,-0.454773,0.035828,0.874878,0.695343,-0.164490,-0.747681,1,1,1,1,1,97.000000
