TimeStamp,Delta_TP9,Delta_AF7,Delta_AF8,Delta_TP10,Theta_TP9,Theta_AF7,Theta_AF8,Theta_TP10,Alpha_TP9,Alpha_AF7,Alpha_AF8,Alpha_TP10,Beta_TP9,Beta_AF7,Beta_AF8,Beta_TP10,Gamma_TP9,Gamma_AF7,Gamma_AF8,Gamma_TP10,RAW_TP9,RAW_AF7,RAW_AF8,RAW_TP10,AUX_RIGHT,AUX_LEFT,Accelerometer_X,Accelerometer_Y,Accelerometer_Z,Gyro_X,Gyro_Y,Gyro_Z,HeadBandOn,HSI_TP9,HSI_AF7,HSI_AF8,HSI_TP10,Battery,Elements
2025-03-24 14:46:21.456,,,,,,,,,,,,,,,,,,,,,,,,,,,,,,,,,,,,,,,/muse/event/connected MuseS-9CF6
2025-03-24 14:46:21.959,0.5116736468706764,-0.1330492559966608,-0.09724056091917831,0.7979810398109838,-0.09158651088822743,-0.2477023388476066,-0.494730834577881,0.01439247299580733,0.6867333925318285,0.1667018582354845,-0.229374679164042,0.7218110794254837,0.31417986310654,-0.07726666189146769,-0.3467150327378514,0.2283390134982118,-0.1465043002759294,-0.5170960210611456,-0.7743815952454723,-0.4423405146520898,817.5457875457876,805.8608058608058,811.5018315018315,815.1282051282052,840.9157509157509,656.3736263736264,-0.069580,0.079712,0.997864,1.540222,-0.037384,-2.392578,1,1,1,1,1,97.000000
2025-03-24 14:46:22.456,0.6120935196345723,-0.3643474653057327,0.1626033183357043,0.8280826065121438,-0.05493210284604479,-0.2385837475479178,-0.4039058483062414,0.01471304306802966,0.6867333925318285,0.2216451039023898,-0.06339949091847133,0.6921535332379127,0.3542045561802817,0.005856820545666306,-0.3466114960465481,0.2374042838917106,-0.2123518011349523,-0.4773257272216253,-0.6290501809262017,-0.4468209539027607,816.7399267399268,798.6080586080586,799.4139194139194,828.021978021978,781.6849816849817,550.8058608058608,-0.115356,0.092957,0.984802,-4.216919,6.968384,5.495453,1,1,1,1,1,97.000000
2025-03-24 14:46:22.956,0.8466976494324403,-0.2004817621547866,0.7444394239234243,0.9468285264560686,0.06047880685646209,-0.1996448368871678,-0.2368898147247836,-0.1199369688928533,0.6679688152592979,0.2216451039023898,-0.01101785270527095,0.6764200099617567,0.3962710976669874,0.09431501472635551,-0.3292288721388717,0.2042245638839625,-0.2134778582512422,-0.144622770332661,-0.4734949868418324,-0.4523308252171245,811.0989010989011,779.2673992673992,845.3479853479854,832.8571428571429,850.5860805860806,881.6117216117217,-0.161926,-0.042542,0.990662,-11.402130,2.684174,24.950104,1,1,1,1,1,97.000000
2025-03-24 14:46:23.458,0.8468107748775455,0.5375041593713744,0.9928073768714142,0.9468285264560686,0.09162013572328577,-0.04205431681674412,-0.07070752687276771,-0.1199369688928533,0.6630202529586326,0.1690956213091874,-0.0953406396787652,0.6764200099617567,0.3730544772615449,0.06317428106726915,-0.2536810368113027,0.2042245638839625,-0.2244588394063446,0.002497255280670523,-0.2978477799956663,-0.4523308252171245,819.1575091575091,809.4871794871796,801.4285714285714,801.8315018315019,857.032967032967,739.7802197802198,-0.182373,-0.107056,0.985779,-1.742096,-3.880463,-2.444916,1,1,1,1,1,97.000000
2025-03-24 14:46:23.957,1.016500856252492,0.6362768665276376,1.159675890335248,0.9468285264560686,0.4031387805892969,-0.059917210948121,0.003718697803649882,-0.1199369688928533,0.3540670706107074,0.08997634350004086,-0.1280130678929678,0.6764200099617567,0.3849680854087622,0.06614045783312371,-0.2829311743216347,0.2042245638839625,-0.1791239273191761,0.01514415762285405,-0.2057612145677677,-0.4523308252171245,807.8754578754579,798.6080586080586,807.4725274725275,809.4871794871796,941.6483516483516,810.2930402930403,-0.192444,-0.088074,0.967041,5.966492,0.194397,-13.204041,1,1,1,1,1,97.000000
2025-03-24 14:46:24.456,0.7867479069515078,0.6359680449756061,1.159675890335248,0.3982520567325257,0.183317634279051,-0.1084285117680742,0.003718697803649882,-0.127871364344051,0.3664380297494882,0.06506265527367602,-0.1280130678929678,0.1206483867860604,0.4098276145405122,0.06487931584347902,-0.2829311743216347,0.0977078129702299,-0.1996952424497633,-0.124212357206743,-0.2057612145677677,-0.4184418399987881,798.2051282051282,796.1904761904763,803.8461538461539,805.4578754578755,784.5054945054945,680.952380952381,-0.186157,-0.113403,0.988342,5.951538,0.635529,-13.091888,1,1,1,1,1,97.000000
2025-03-24 14:46:24.956,0.6341115716917186,0.3528923915898967,0.2451874832384068,0.5371432895260172,0.1198898233496742,-0.3558045679949626,-0.4338693729269143,-0.002362536733266807,0.3877992927699744,0.08877178807069262,-0.06780427121137975,0.3238942549219764,0.3911849536370013,0.04063318221646083,-0.149721089300348,0.08519394962308575,-0.07525219665558415,-0.3481000954960736,-0.4565030610515144,-0.2197081587028548,800.2197802197802,797.8021978021978,806.6666666666667,799.4139194139194,834.8717948717949,568.9377289377289,-0.204468,0.039978,0.971680,12.314301,-5.031891,-12.007751,1,1,1,1,1,97.000000
2025-03-24 14:46:25.456,0.06842346800539628,-0.09574214020526803,0.100985971509711,0.7430080843046546,-0.1318728065072969,-0.2675335070923881,-0.4629732676732655,0.1680446068664395,0.3254102026932996,0.1066585120979699,-0.02477038882898272,0.5501642879719523,0.391075696386325,0.04826975768319611,-0.2020101441047988,0.1471343787574085,-0.07346133268276431,-0.4801381218933116,-0.5361121619267699,-0.2547207332550847,798.6080586080586,799.0109890109891,788.1318681318681,791.3553113553114,895.3113553113553,716.007326007326,-0.170532,0.114014,0.972046,-0.351410,4.545898,-0.545807,1,1,1,1,1,97.000000
2025-03-24 14:46:25.956,0.5013830234370582,0.5715880690798381,0.6191660673406875,0.6786959922657957,0.09160396151969505,0.1708828125073291,0.07937547236657061,0.1476851510289468,0.2887281404420134,0.3521931571506351,0.2854273608764823,0.5511848471091546,0.3533133041393494,-0.0305680269739393,-0.2297151132755803,0.2888436964191051,-0.05075609203153325,-0.3758705041450959,-0.563981707465794,-0.2720799197680478,788.1318681318681,811.5018315018315,774.0293040293041,781.2820512820513,745.0183150183151,544.7619047619048,-0.228149,0.092957,0.967651,2.758942,0.934601,-9.241333,1,1,1,1,1,97.000000
2025-03-24 14:46:26.456,0.6295663931040999,0.7037185950974577,0.9476267207916379,0.6982810559442575,0.2830340260665214,0.3091232860290051,0.4253136042467659,0.2421728910679507,0.3602328570076495,0.3693769067752143,0.3659690584899468,0.5540917828748606,0.3339650347306258,-0.03688427132503723,-0.2922771163163906,0.3487695021503439,-0.1842720406526014,-0.2946852394647092,-0.7024913611959239,-0.3475124654890809,881.2087912087912,774.0293040293041,837.2893772893773,906.5934065934066,805.0549450549451,664.0293040293041,-0.174194,0.073730,0.977966,-4.157104,-4.089813,5.704803,1,1,1,1,1,97.000000
2025-03-24 14:46:26.495,,,,,,,,,,,,,,,,,,,,,,,,,,,,,,,,,,,,,,,/muse/elements/blink
2025-03-24 14:46:26.956,0.8001987672571347,1.024246769471227,1.116027322992232,0.3623936722606457,0.41894615593857,0.4248255318830306,0.5844307279318363,0.1399343942949469,0.3375956065921473,0.479114451242355,0.3659690584899468,0.4123350624079085,0.2990043819317871,-0.02913725221885028,-0.2877437740050423,0.4049646230121882,-0.19190029475495,-0.1543643124029572,-0.7013348866421912,-0.3616032810968658,800.2197802197802,798.6080586080586,796.1904761904763,801.025641025641,817.948717948718,637.4358974358975,-0.164185,0.066650,0.974426,-2.377625,-1.772003,8.351593,1,1,1,1,1,97.000000
2025-03-24 14:46:27.456,0.6997904125335349,1.056762729136279,1.219835705360556,0.5666287629010315,0.5482633508160758,0.3156810134314668,0.685903443260978,0.3064116295768965,0.2851004378651895,0.4166090996133026,0.302154142808569,0.3180340892894019,0.2374209959602218,-0.0146396807032467,-0.3428274150998609,0.3216095001029449,-0.2827108843346305,-0.1528542243629939,-0.7269817658817305,-0.2922703025637182,830.0366300366301,819.5604395604396,751.4652014652015,820.7692307692308,923.1135531135532,645.8974358974359,-0.194214,0.080261,0.933777,1.801910,2.871094,2.923431,1,1,1,1,1,97.000000
2025-03-24 14:46:27.533,,,,,,,,,,,,,,,,,,,,,,,,,,,,,,,,,,,,,,,/muse/elements/blink
2025-03-24 14:46:27.956,0.6997904125335349,1.134709618105717,1.276946563633517,0.5666287629010315,0.5482633508160758,0.3669241753398696,0.7293441931786278,0.3064116295768965,0.2851004378651895,0.4404090352567793,0.2798373023989389,0.3180340892894019,0.2374209959602218,0.03398353930141514,-0.3441111704894453,0.3216095001029449,-0.2827108843346305,0.05602406825906842,-0.7028620985267405,-0.2922703025637182,802.2344322344322,798.6080586080586,802.2344322344322,809.8901098901099,859.047619047619,611.6483516483516,-0.058777,0.056335,1.003479,4.291687,-2.459869,-6.108551,1,1,1,1,1,97.000000
2025-03-24 14:46:28.475,0.6997904125335349,1.015183677615018,1.276946563633517,0.5666287629010315,0.5482633508160758,0.2552891626212527,0.7293441931786278,0.3064116295768965,0.2851004378651895,0.3878668180392206,0.2798373023989389,0.3180340892894019,0.2374209959602218,0.08876551647528186,-0.3441111704894453,0.3216095001029449,-0.2827108843346305,0.07629205682332424,-0.7028620985267405,-0.2922703025637182,781.6849816849817,793.3699633699634,799.4139194139194,795.3846153846154,921.9047619047619,806.2637362637363,-0.000610,0.127075,0.998718,-0.650482,-1.121521,2.198181,1,1,1,1,1,97.000000
2025-03-24 14:46:28.654,,,,,,,,,,,,,,,,,,,,,,,,,,,,,,,,,,,,,,,/muse/elements/blink
2025-03-24 14:46:28.956,0.6997904125335349,0.8723975348390212,0.07874504088136747,0.5666287629010315,0.5482633508160758,0.578379758704782,-0.07175121809274178,0.3064116295768965,0.2851004378651895,0.3832181993333449,0.3368036546492885,0.3180340892894019,0.2374209959602218,0.2499311873416262,-0.2313926122363121,0.3216095001029449,-0.2827108843346305,0.0953385329682299,-0.5637928016865061,-0.2922703025637182,799.0109890109891,801.025641025641,807.8754578754579,809.0842490842491,837.2893772893773,638.2417582417582,0.005615,0.103638,1.012878,-0.732727,0.807495,1.405640,1,2,1,1,2,97.000000
2025-03-24 14:46:29.338,,,,,,,,,,,,,,,,,,,,,,,,,,,,,,,,,,,,,,,/muse/elements/blink
2025-03-24 14:46:29.469,0.6997904125335349,0.6849900556367133,0.1572428300459373,0.5666287629010315,0.5482633508160758,0.5317734041185816,0.04216432715318892,0.3064116295768965,0.2851004378651895,0.1781800335283258,0.3482196164744843,0.3180340892894019,0.2374209959602218,0.3204384899043149,-0.07190758993458196,0.3216095001029449,-0.2827108843346305,-0.123256327803836,-0.5329895144468471,-0.2922703025637182,799.4139194139194,800.6227106227107,807.8754578754579,810.6959706959707,893.2967032967033,815.5311355311355,-0.155579,0.065247,0.986267,6.385193,-4.687958,-14.482574,1,2,1,1,2,97.000000
2025-03-24 14:46:29.962,0.6997904125335349,0.6331796584743271,0.5726616601663445,0.5666287629010315,0.5482633508160758,0.4847363635240302,0.2067217093530218,0.3064116295768965,0.2851004378651895,0.1869075957934255,0.3482196164744843,0.3180340892894019,0.2374209959602218,0.3426951276786311,-0.01066938099546757,0.3216095001029449,-0.2827108843346305,-0.07589455948249785,-0.4449802890630393,-0.2922703025637182,791.3553113553114,833.2600732600733,784.1025641025641,796.5934065934066,1093.150183150183,1338.937728937729,0.019043,0.280579,1.013611,16.628418,-13.263855,-136.339569,1,2,1,1,2,97.000000
2025-03-24 14:46:30.457,0.6997904125335349,0.6904447464684027,0.8045600669441502,0.5666287629010315,0.5482633508160758,0.4480637777690923,0.2769235092303105,0.3064116295768965,0.2851004378651895,0.1996499375835006,0.3045575471605453,0.3180340892894019,0.2374209959602218,0.3759737117660299,0.02319071139913697,0.3216095001029449,-0.2827108843346305,0.02266536352169686,-0.4336667878986553,-0.2922703025637182,796.5934065934066,799.0109890109891,806.2637362637363,812.7106227106227,931.978021978022,785.7142857142858,-0.077515,0.019958,1.045410,16.052704,1.106567,-92.697449,1,2,1,1,2,97.000000
2025-03-24 14:46:30.957,1.342456478293188,0.5805946662075354,0.9653591021174051,1.32905642201024,0.9099908578944961,0.2387662355697987,0.3747773675380868,1.415956003746298,0.9137590047755456,0.08088140389814365,0.06582911684086763,1.172829079441261,0.6184069833599468,0.3919231223238388,0.02135045294089101,0.7521127061870246,0.4156827262398058,0.05267410565463877,-0.370502258659275,0.2237241786587936,800.2197802197802,805.4578754578755,799.8168498168499,783.2967032967033,447.6556776556777,12.89377289377289,-0.118469,0.011353,0.990845,14.512482,8.291779,-47.530060,1,1,1,1,1,97.000000
2025-03-24 14:46:31.457,1.162430124940094,0.7613638975650368,1.041934795144435,1.439671067132231,0.857429669752602,0.4029333664802855,0.3124170435136669,1.403232575607217,0.9430211357563579,0.009242455353459949,-0.01583758250698333,1.195622355103571,0.5661923604475924,0.3978902528740519,-0.06494839270755383,0.7544372867447018,0.5702527268472171,0.09643616964782151,-0.4726376061894013,0.2578269881271911,790.952380952381,782.4908424908425,806.6666666666667,812.3076923076924,960.5860805860806,942.8571428571429,-0.265991,0.037903,0.964050,0.530853,-1.592560,-3.446808,1,1,1,1,1,97.000000
2025-03-24 14:46:31.957,1.041217584176634,0.7613638975650368,1.041934795144435,1.439671067132231,0.7352767196433291,0.4029333664802855,0.3124170435136669,1.403232575607217,0.9430211357563579,0.009242455353459949,-0.01583758250698333,1.195622355103571,0.4870620065944976,0.3978902528740519,-0.06494839270755383,0.7544372867447018,0.4679974490156842,0.09643616964782151,-0.4726376061894013,0.2578269881271911,817.948717948718,800.2197802197802,800.2197802197802,805.4578754578755,938.4249084249085,785.7142857142858,-0.268250,0.017395,0.971802,1.203766,2.467346,1.338348,1,1,1,1,1,97.000000
2025-03-24 14:46:32.415,,,,,,,,,,,,,,,,,,,,,,,,,,,,,,,,,,,,,,,/muse/elements/blink
2025-03-24 14:46:32.456,0.7747674225947683,-0.2005318023754942,0.2253507252685891,1.497634734703578,0.614131013987245,-0.4719263985432274,-0.05495031517903205,1.290745026627014,0.8641099324288914,-0.0880091744118917,0.09025698734565184,1.193796644094799,0.4074534525978353,1.013612374960063,-0.1351212871974418,0.7059448221176078,0.3440054766017662,0.5606896810174854,-0.6097767238719234,0.2420007819636699,842.1245421245421,805.4578754578755,802.6373626373627,829.2307692307693,925.5311355311355,808.2783882783883,-0.489441,0.014038,0.809387,6.422577,10.766602,-4.508514,1,1,1,1,1,97.000000
2025-03-24 14:46:32.957,0.8640039585185559,-0.2342773145088987,0.4035799786285861,1.189611747027382,0.9566494311094563,-0.1003946183809005,0.2718656021381173,1.557459275478192,0.8865566809827375,0.04883041494495347,0.5003128055388649,1.012268777039107,0.4026689629989018,0.9054843788371171,-0.04940019275064151,0.4705588049727155,0.02535645370993266,0.7482158367404895,-0.5142414874805896,0.03588210458509096,790.1465201465202,795.3846153846154,800.2197802197802,797.3992673992674,836.8864468864469,671.2820512820513,-0.450500,0.000305,0.889465,0.448608,-2.758942,1.001892,1,1,1,1,1,97.000000
2025-03-24 14:46:33.457,0.9538235159598716,0.2002496808216329,0.5588924823149454,1.149837676459132,1.123693280361057,0.06385715518568864,0.4247537768592506,1.451494908233786,0.8865566809827375,0.1431735176450982,0.5665771049140541,1.026977645375045,0.4591976012591544,0.9045028952565731,0.0816646786933941,0.5335188818238961,-0.116879180294863,0.7889758973023044,-0.149595721855158,0.1700948570222752,796.996336996337,802.6373626373627,803.040293040293,801.4285714285714,875.1648351648352,727.2893772893773,-0.435669,0.011475,0.888245,0.426178,-2.960815,0.134583,1,1,1,1,1,97.000000
2025-03-24 14:46:33.957,1.010449195072528,0.4650691699327894,0.7495219337795729,1.033137323022199,1.172773951154995,0.2305960081387629,0.5075933188383038,1.298556637617698,0.9088040119467865,0.1645237334520045,0.5628848757900395,1.038345996462214,0.494417878727578,0.8087826985557234,0.239249887676334,0.5571898183506122,0.1965604981999479,0.7995110819620568,0.1117792104072246,0.2194413395682474,804.6520146520147,789.3406593406594,804.2490842490843,807.8754578754579,811.5018315018315,633.4065934065934,-0.401611,0.027100,0.895996,-11.678772,-10.033875,44.030914,1,1,1,1,1,97.000000
2025-03-24 14:46:34.417,,,,,,,,,,,,,,,,,,,,,,,,,,,,,,,,,,,,,,,/muse/elements/blink
2025-03-24 14:46:34.457,0.2764896068703663,0.5315215212909246,0.719389454651736,0.7053997803594603,0.1217953523528241,0.2169389685957638,0.3935076322482178,0.6290906153996263,0.4845191821816283,0.2451183541434382,0.5643978500022451,0.8857289395205959,0.4095656215189867,0.7106884896874971,0.3009286790375084,0.5930101465188286,0.2860282105224098,0.6348859268819355,0.2069142814563533,0.2522188999346969,834.0659340659341,780.8791208791209,821.5750915750916,846.5567765567765,868.7179487179487,500.0366300366301,-0.064087,-0.034180,1.020813,-20.075226,-16.964874,100.196686,1,1,1,1,1,97.000000
2025-03-24 14:46:34.957,0.2764896068703663,0.6770653309880849,0.652505377245394,0.4310705895772601,0.1217953523528241,0.1950943435221217,0.1721124268062041,0.04496127048878053,0.4845191821816283,0.2472452721688251,0.4834445576432652,0.5104408648693691,0.4095656215189867,0.5494287430977709,0.3275175105863627,0.5751675582005411,0.2860282105224098,0.4395259087358684,0.2246460093475386,0.2062580855544612,816.7399267399268,801.025641025641,812.3076923076924,834.4688644688645,739.7802197802198,517.7655677655678,-0.051270,0.099792,0.966736,-19.417267,3.147736,114.522247,1,1,1,1,1,97.000000
2025-03-24 14:46:35.464,-0.06397629514467282,0.7192402865569496,0.04007670421140812,0.2279303033946118,-0.2233159390301681,0.03107340404811209,-0.4471535028025558,-0.1205387939420317,0.1871305286644071,0.1043020093318022,-0.1933767520128898,0.3141287811990796,0.378477193957253,0.2216240966532834,0.2583127961171148,0.5370948843991546,0.2213732782277463,0.1111135193059511,0.06855506007418131,0.1114152441640001,857.032967032967,838.4981684981685,775.6410256410256,834.8717948717949,906.5934065934066,798.6080586080586,0.093933,0.135742,0.957275,13.211517,-15.447083,14.714355,1,1,1,1,1,97.000000
2025-03-24 14:46:35.957,-0.06397629514467282,1.322417500348286,0.04007670421140812,0.2279303033946118,-0.2233159390301681,0.4708315262412254,-0.4471535028025558,-0.1205387939420317,0.1871305286644071,0.2374318072532297,-0.1933767520128898,0.3141287811990796,0.378477193957253,0.08853623383305513,0.2583127961171148,0.5370948843991546,0.2213732782277463,-0.1062598648759559,0.06855506007418131,0.1114152441640001,801.025641025641,794.981684981685,799.0109890109891,811.9047619047619,767.985347985348,532.6739926739926,0.105835,0.145203,1.019287,-0.792542,-7.020721,-9.211426,1,1,1,1,1,97.000000
2025-03-24 14:46:36.457,-0.06397629514467282,1.396688121623384,0.04007670421140812,0.2279303033946118,-0.2233159390301681,0.5409623746721349,-0.4471535028025558,-0.1205387939420317,0.1871305286644071,0.1984478143639074,-0.1933767520128898,0.3141287811990796,0.378477193957253,-0.06118093623888116,0.2583127961171148,0.5370948843991546,0.2213732782277463,-0.6176981029690682,0.06855506007418131,0.1114152441640001,796.5934065934066,799.4139194139194,800.6227106227107,805.4578754578755,753.4798534798535,710.7692307692308,0.097473,0.092346,0.984009,-3.282318,-2.123413,1.061707,1,1,1,1,1,97.000000
2025-03-24 14:46:36.962,-0.01476678604124306,1.050151939893816,0.17436026139811,1.550684867475974,-0.001068032505441644,0.247842750185799,-0.2285305497989704,0.6915658921470895,0.5072658683978798,0.2184546160825915,0.1644496918073532,0.7624891137278763,0.3605294576247126,-0.1240798592491734,-0.1357848763565074,0.4672903762118044,-0.2246404604748878,-0.4054823259940055,-0.5121963248383518,-0.1368266753466655,810.2930402930403,797.3992673992674,804.6520146520147,815.1282051282052,942.0512820512821,739.7802197802198,0.126709,0.089355,0.988953,0.590668,-1.278534,-0.254211,1,1,1,1,1,97.000000
2025-03-24 14:46:37.457,0.3552348829879876,-0.08998836530652631,0.1838356102072171,0.5088925781488824,0.03850655206223064,-0.5581328964806678,-0.06912436155432347,0.3371455602350358,0.5148272219997075,0.07499028411401008,0.1711369983251421,0.3439408710464393,0.3764212771129788,-0.1350720497038856,-0.1085572100922529,0.1850858258570658,-0.1549572918419111,-0.3834303348690147,-0.548130712031027,-0.1418544921595898,811.9047619047619,808.6813186813187,805.8608058608058,805.4578754578755,835.2747252747253,651.1355311355312,0.102722,0.103210,0.998535,0.897217,2.504730,-1.742096,1,1,1,1,1,97.000000
2025-03-24 14:46:37.957,0.3755591385263714,0.007492682765054808,0.06632091849957023,0.4681949643634493,0.03029300286420023,-0.4394345624946158,-0.04609249459871164,0.2306644702500522,0.5186818775320462,0.07756738900558588,0.1408284188758074,0.3465842600111174,0.3462072770037288,-0.02691801869687354,-0.09156418344703884,0.1178236328830064,-0.1432374644726866,-0.4554421097831605,-0.6169113466990491,-0.1302354238819753,790.952380952381,798.6080586080586,795.3846153846154,794.5787545787546,799.8168498168499,626.5567765567765,0.077209,0.117981,0.988403,0.755157,0.403748,-1.786957,1,1,1,1,1,97.000000
2025-03-24 14:46:38.469,0.5218725856045873,0.1183742760144492,0.2571989345889762,0.5378411594064135,0.1094744577247171,-0.2399624512616877,0.05915329533474337,0.2208260649525851,0.3507941596718551,-0.2085137693242694,0.05162738200252694,0.3253926960726831,0.2596000329531423,-0.0564699911916283,-0.04985211796005795,0.1856229415401932,-0.04105973940358585,-0.5130954596277582,-0.7447588046524271,-0.1748834858183412,800.6227106227107,809.0842490842491,805.8608058608058,817.5457875457876,883.6263736263736,709.1575091575091,0.096069,0.121216,1.004517,0.919647,-0.456085,1.091614,1,1,1,1,1,97.000000
2025-03-24 14:46:38.957,0.5059440616563428,0.2389064884047581,0.3946679046205948,0.624022305357398,0.256097024005029,-0.1517306659208807,0.2597937744596439,0.2193198853542237,0.422819559699427,-0.2589691361921801,0.2475996969025567,0.2271198078376491,0.2014423629436144,-0.02343720970999331,-0.06781193233563983,0.2661030230641729,-0.01939126719001477,-0.6225404275267241,-0.7430702521108616,-0.2423528006425986,795.3846153846154,800.2197802197802,805.8608058608058,797.3992673992674,847.3626373626374,691.8315018315019,0.090576,0.102417,0.999146,0.276642,-2.115936,0.942078,1,1,1,1,1,97.000000
2025-03-24 14:46:39.457,0.4758331562929867,0.275964047861287,0.4184512193605404,0.6371311224748741,0.3388904688140078,-0.1074494237645144,0.2388827993033143,0.3036072073900083,0.4819792465035452,-0.07713267978933792,0.2491439939983184,0.3151956594227256,0.2250133536716145,-0.1886427900445313,-0.08916800396131072,0.3458421458991864,-0.04400703579955432,-0.5657857687265201,-0.6098564820777107,-0.2346898034852375,795.7875457875458,796.996336996337,802.6373626373627,803.8461538461539,826.8131868131868,639.047619047619,0.084717,0.119812,0.997742,1.099091,-2.534637,1.016846,1,1,1,1,1,97.000000
2025-03-24 14:46:39.956,0.3448078215293777,0.1974888369582824,0.2460699102871116,0.5181527116275922,0.3018623959366198,-0.1720857923831496,0.1922255138134973,0.2564709892022385,0.5599304845728548,0.07544923823256579,0.2433969180690192,0.2879884584496696,0.2685513035056232,-0.2105395725057757,-0.1717487280615373,0.32460444998333,-0.1057669113494345,-0.6122804531947982,-0.5348816273797147,-0.2551255805444965,797.3992673992674,800.2197802197802,806.2637362637363,808.6813186813187,788.9377289377289,562.0879120879121,0.082031,0.110352,0.996460,0.044861,-0.665436,0.471039,1,1,1,1,1,97.000000
2025-03-24 14:46:40.457,0.1120101567547438,0.04781425345520959,0.2001336661789083,0.2949085377727719,0.2380795388555149,-0.1409042643820595,0.0605660932057713,0.1478370749144602,0.5597830998709544,0.07869234489054086,0.1126303370654708,0.3114154228858713,0.3660339595524297,-0.1175374411736162,-0.2628629383928374,0.24865079863368,-0.116720108075598,-0.5374727549559314,-0.466920857483094,-0.1751964064345089,799.8168498168499,799.0109890109891,803.040293040293,804.2490842490843,774.4322344322345,552.4175824175825,0.088135,0.117554,0.982117,0.949554,0.104675,-0.912170,1,1,1,1,1,97.000000
2025-03-24 14:46:40.845,,,,,,,,,,,,,,,,,,,,,,,,,,,,,,,,,,,,,,,/muse/elements/blink
2025-03-24 14:46:40.957,-0.1273669953878882,0.1329220548229156,0.6820750157201959,0.1585909269274808,0.113112968707095,-0.1026614872864379,0.1666643839871147,0.03310496647852348,0.5039623299735005,0.1840534148912218,0.06094269170470467,0.3086143488797177,0.4014809208238253,0.03637885389961036,-0.3650163984943592,0.2145842688909274,-0.1155039264974053,-0.5282626123341403,-0.516329323621195,-0.229665043428727,811.0989010989011,801.4285714285714,801.8315018315019,802.6373626373627,925.1282051282052,719.6336996336996,0.060913,0.113953,1.002014,-0.553284,-0.209351,-2.115936,1,1,1,1,1,97.000000
2025-03-24 14:46:41.465,-0.3742180223925636,0.2851580065436741,0.8628421035522599,0.005561754890317427,0.1928316167158483,-0.03342301022322906,0.2671375355321436,0.05987882950691974,0.3360418457456215,0.09123308153074981,0.05642459363101682,0.1520387708154413,0.4863271334852031,0.1514610204324038,-0.4479730021497668,0.2398568972443161,-0.1022641541165689,-0.4610781446147826,-0.482887752872048,-0.191220295224871,801.8315018315019,807.4725274725275,796.1904761904763,788.5347985347986,857.4358974358975,727.2893772893773,0.063721,0.112976,1.002625,0.717773,-1.958923,2.295380,1,1,1,1,1,97.000000
2025-03-24 14:46:41.968,-0.8816491526146081,0.4402095629719248,1.042397072889088,-0.236300381795869,0.06600229619389375,0.01609363001780811,0.2283779310240356,-0.1325876004035995,0.2792692789149784,0.09051768997422062,-0.0167261778800214,0.1263688213142267,0.440815345028774,0.2201841565129194,-0.4256419491896674,0.2224287410017102,-0.2272759025701331,-0.4352004523251006,-0.5518971970409483,-0.2012182618869901,798.6080586080586,803.040293040293,796.996336996337,795.7875457875458,749.4505494505495,717.6190476190476,0.074768,0.109070,0.990479,0.598145,-1.300964,-0.328979,1,1,1,1,1,97.000000
2025-03-24 14:46:42.456,-0.8816491526146081,-0.03599203443253465,1.10906185503566,0.3286234039900786,0.06600229619389375,-0.6543404003629266,0.2289043024593132,0.1911633240486756,0.2792692789149784,-0.5353955612993974,-0.0341067638473249,0.7010735464246516,0.440815345028774,-0.4180148226753739,-0.3763315685842732,0.2105508051246086,-0.2272759025701331,-0.5308349620308961,-0.5988687886713439,-0.4151719251810065,801.4285714285714,801.4285714285714,805.4578754578755,801.4285714285714,838.0952380952381,663.2234432234433,0.076050,0.103455,0.984558,0.306549,-1.091614,-3.813171,1,1,1,1,1,97.000000
2025-03-24 14:46:42.957,0.2751266203018551,-0.2416833511115449,-0.3620951669390063,0.2365650815272951,0.2798221620893884,-0.2844007496433975,-0.234008728129262,0.2336863336568305,0.1277484326464531,-0.1680660178562216,-0.3775159048728586,0.7108217782501695,0.1571264054187236,-0.3765649978211418,-0.2163288909554475,0.2149263375459189,-0.1384620968309449,-0.3832252855437103,-0.6922527906707427,-0.3587808805955504,684.981684981685,786.5201465201466,787.3260073260074,672.893772893773,856.2271062271062,702.3076923076924,0.070312,0.125488,0.991211,-4.882355,3.364563,-19.088287,1,1,1,1,1,97.000000
2025-03-24 14:46:43.051,,,,,,,,,,,,,,,,,,,,,,,,,,,,,,,,,,,,,,,/muse/elements/blink
2025-03-24 14:46:43.457,0.2751266203018551,0.05462292865319907,0.9613431365119429,0.2365650815272951,0.2798221620893884,-0.2153268415560707,0.4126981799770534,0.2336863336568305,0.1277484326464531,0.1716601149061947,-0.1181282133258146,0.7108217782501695,0.1571264054187236,-0.08567366058822115,-0.1608539247044958,0.2149263375459189,-0.1384620968309449,-0.1323909595704221,-0.4765119864658854,-0.3587808805955504,844.1391941391942,819.96336996337,776.8498168498169,816.3369963369963,1451.355311355311,1622.197802197802,0.038696,0.227844,1.058411,9.286194,-1.487885,-43.612213,1,1,1,1,1,97.000000
2025-03-24 14:46:43.957,0.2751266203018551,0.6514748990786546,1.000772376261998,-0.06416074385047515,0.2798221620893884,0.2073707041308925,0.4448008133891246,0.330904439772722,0.1277484326464531,0.294526500288328,-0.1181282133258146,0.06414737207491424,0.1571264054187236,0.1218974646987646,-0.1505073811608022,0.2618091631906573,-0.1384620968309449,0.1842180244190718,-0.4630618907994007,-0.2604241208194761,809.4871794871796,830.4395604395604,801.025641025641,843.7362637362637,563.6996336996338,209.5238095238095,-0.026245,0.119141,1.001038,15.985413,-20.321960,-139.883575,1,1,1,1,1,97.000000
2025-03-24 14:46:44.457,0.2751266203018551,1.022327419506845,1.363192012310301,-0.06416074385047515,0.2798221620893884,0.4541633564269015,0.7602353694787363,0.330904439772722,0.1277484326464531,0.2716739227766367,0.05336798196234254,0.06414737207491424,0.1571264054187236,0.319934212225472,-0.06972466740016837,0.2618091631906573,-0.1384620968309449,0.3939586244656174,-0.3842662529553006,-0.2604241208194761,770.4029304029305,788.9377289377289,814.3223443223443,806.6666666666667,589.4871794871796,286.8864468864469,0.227783,-0.056702,1.042419,7.267456,1.286011,-38.019562,1,1,1,1,1,97.000000
2025-03-24 14:46:44.773,,,,,,,,,,,,,,,,,,,,,,,,,,,,,,,,,,,,,,,/muse/elements/blink
2025-03-24 14:46:44.957,0.2751266203018551,1.29088534290346,1.386574545606234,-0.06416074385047515,0.2798221620893884,0.7036676999768423,0.6987173815745915,0.330904439772722,0.1277484326464531,0.2626121941148896,0.1181751103365967,0.06414737207491424,0.1571264054187236,0.4972862482583947,-0.1069349556032614,0.2618091631906573,-0.1384620968309449,0.6097364195353041,-0.5404500231479916,-0.2604241208194761,745.4212454212454,770.4029304029305,840.1098901098901,776.8498168498169,608.8278388278388,6.446886446886447,-0.365967,0.132935,0.874634,3.544006,18.863983,4.112244,1,1,1,1,1,97.000000
2025-03-24 14:46:45.291,,,,,,,,,,,,,,,,,,,,,,,,,,,,,,,,,,,,,,,/muse/elements/blink
2025-03-24 14:46:45.456,0.2751266203018551,1.29088534290346,1.386574545606234,-0.06416074385047515,0.2798221620893884,0.7036676999768423,0.6987173815745915,0.330904439772722,0.1277484326464531,0.2626121941148896,0.1181751103365967,0.06414737207491424,0.1571264054187236,0.4972862482583947,-0.1069349556032614,0.2618091631906573,-0.1384620968309449,0.6097364195353041,-0.5404500231479916,-0.2604241208194761,809.8901098901099,813.5164835164835,795.7875457875458,832.0512820512821,1422.747252747253,1622.197802197802,-0.310181,-0.092224,0.995483,-6.796417,-4.605713,6.616974,1,1,1,1,1,97.000000
2025-03-24 14:46:45.956,0.2751266203018551,1.29088534290346,1.052429136790239,-0.06416074385047515,0.2798221620893884,0.7036676999768423,0.3857443597879851,0.330904439772722,0.1277484326464531,0.2626121941148896,0.1414372118349232,0.06414737207491424,0.1571264054187236,0.4972862482583947,0.1652775343222412,0.2618091631906573,-0.1384620968309449,0.6097364195353041,0.1577794431431044,-0.2604241208194761,801.4285714285714,792.1611721611722,801.025641025641,801.4285714285714,848.1684981684982,776.0439560439561,-0.396362,0.067444,0.888367,0.134583,-2.489777,-8.179626,1,2,1,1,2,97.000000
2025-03-24 14:46:46.456,0.2751266203018551,1.29088534290346,0.7866652676109102,-0.06416074385047515,0.2798221620893884,0.7036676999768423,0.394484000648689,0.330904439772722,0.1277484326464531,0.2626121941148896,0.1783808807503079,0.06414737207491424,0.1571264054187236,0.4972862482583947,0.3509597479874593,0.2618091631906573,-0.1384620968309449,0.6097364195353041,0.5072632122590841,-0.2604241208194761,793.3699633699634,804.2490842490843,794.1758241758242,786.9230769230769,858.6446886446887,776.0439560439561,-0.383240,0.073181,0.915100,1.345825,0.052338,-1.106567,1,2,1,1,2,97.000000
2025-03-24 14:46:46.957,0.2751266203018551,0.375598597560539,0.6342326491096713,-0.06416074385047515,0.2798221620893884,0.3248879270096427,0.2935586216250084,0.330904439772722,0.1277484326464531,0.1876510656605263,0.2013794580772663,0.06414737207491424,0.1571264054187236,0.6409352861541864,0.3557909833210328,0.2618091631906573,-0.1384620968309449,0.9450457865147278,0.3925320716668039,-0.2604241208194761,820.3663003663004,807.0695970695971,763.1501831501831,797.3992673992674,873.1501831501831,705.934065934066,-0.369873,0.050903,0.919922,-0.620575,-1.315918,-1.330872,1,2,1,1,2,97.000000
2025-03-24 14:46:47.131,,,,,,,,,,,,,,,,,,,,,,,,,,,,,,,,,,,,,,,/muse/elements/blink
2025-03-24 14:46:47.463,0.9068041062084722,0.566796665798586,0.9951042086872466,1.410983257058202,0.9934261497486605,0.22979665804407,0.4457126990502687,1.435620360796256,0.9999063748194803,0.1973673063011808,0.4520400652664129,1.190215024598818,0.173707365274921,0.6011152835866858,0.3075189033816655,0.638358614458009,0.04630880540581279,0.7821352287478074,0.290222062987224,-0.1228974754824898,797.3992673992674,805.8608058608058,804.2490842490843,791.7582417582418,882.014652014652,785.7142857142858,-0.416443,0.019348,0.904480,3.641205,-1.749573,-4.852448,1,1,1,1,1,97.000000
2025-03-24 14:46:47.957,0.9068041062084722,0.5932338333715792,1.005429851407986,1.442905130959861,0.9934261497486605,0.1474109728443283,0.4618856610197378,1.454671108324679,0.9999063748194803,0.1252199042798804,0.4579966043886371,1.134091881105773,0.173707365274921,0.5452784129165666,0.2922956917145393,0.6064403633267941,0.04630880540581279,0.6517370113915577,0.02032066359370639,-0.1486910485018813,803.040293040293,795.7875457875458,802.6373626373627,794.981684981685,867.9120879120879,742.1978021978023,-0.416931,0.057861,0.891541,0.732727,0.186920,3.618774,1,1,1,1,1,97.000000
2025-03-24 14:46:48.457,0.8576273548341172,0.5476302805494005,0.9819024637429362,1.300296357186453,0.9211553305892032,-0.01170151889909308,0.4379503953185845,1.269941716464233,0.9999063748194803,0.01192865714048091,0.4654565579812095,1.134091881105773,0.2746225174164191,0.4731000910132991,0.2199484615230508,0.5129323324624662,0.03125334780612018,0.5042476599432139,0.02866719004032419,-0.1854654276872683,792.967032967033,781.6849816849817,825.6043956043957,799.8168498168499,844.9450549450549,658.7912087912088,-0.446106,0.044922,0.887573,0.291595,-3.843079,1.218719,1,1,1,1,1,97.000000
2025-03-24 14:46:48.957,0.1854359890420011,0.4533957178621218,0.5348752210102982,0.07552442064570014,0.1489011733366784,0.03184664786979152,0.1680411735306088,-0.125529414017241,0.09973372250673204,0.2735242403553335,0.237886546223517,0.257913955658871,0.3148794649120621,0.4438683671555012,0.3025478458940977,0.3310493926791173,0.03623085836269091,0.6507617642621475,0.2377005123003536,-0.1699981792588441,801.8315018315019,810.6959706959707,789.3406593406594,792.1611721611722,831.6483516483516,642.6739926739926,-0.423462,0.069458,0.893555,0.007477,-1.637421,1.293488,1,1,1,1,1,97.000000
2025-03-24 14:46:49.470,0.1336552393983816,0.5118031233123422,0.7660578036252396,0.3113590491786912,0.1046548775171111,0.1195309519069801,0.2585565691892514,-0.005125408065760459,0.2684141317177733,0.5107590603699359,0.4046834844996176,0.3313768896257154,0.2799118045442361,0.4221489198135794,0.2519303685500195,0.319385895320927,-0.03946108067589826,0.6071814532110734,0.2175491394389232,-0.0935273390410277,792.5641025641025,801.025641025641,805.0549450549451,794.981684981685,824.3956043956044,653.1501831501831,-0.424805,0.042053,0.886963,0.949554,-1.345825,-1.308441,1,1,1,1,1,97.000000
2025-03-24 14:46:49.960,0.153925299338493,0.5628252778317688,0.8124185277392703,0.3859177170405753,0.1045514808143977,0.2065710037223821,0.3184485837844193,0.08989816268955694,0.3234965917161471,0.5107590603699359,0.4009618783660351,0.3337917565947126,0.3008019709588933,0.4473108937983115,0.2440568927509162,0.3122559701716794,-0.04141172910586888,0.5291267334044872,0.1667804080860794,-0.06077632128862385,775.6410256410256,813.1135531135532,809.0842490842491,772.8205128205128,796.996336996337,750.6593406593407,-0.391602,0.100891,0.895996,1.540222,-3.663635,-4.598236,1,1,1,1,1,97.000000
2025-03-24 14:46:50.163,,,,,,,,,,,,,,,,,,,,,,,,,,,,,,,,,,,,,,,/muse/elements/blink
2025-03-24 14:46:50.461,0.2576431071409047,0.6338769366855984,0.7349519365227613,0.5428748077340705,0.09115960521916437,0.3083122344121731,0.2701672600022191,0.1432530078572033,0.3420462075904215,0.4971358191116171,0.3814899632757519,0.3028261359317955,0.2663202085574891,0.4146840860455935,0.1072400514789129,0.29646808624201,-0.1391235723206273,0.1859963392499857,-0.08567560096770117,-0.04216452447063655,806.2637362637363,804.6520146520147,805.8608058608058,816.7399267399268,1290.18315018315,1599.6336996337,-0.417603,0.144897,0.893860,2.871094,0.889740,-2.983246,1,1,1,1,1,97.000000
2025-03-24 14:46:50.965,0.4311007373977016,0.8348404981659679,0.3320466894600154,0.589499530934679,0.1886083088790019,0.5203581906387357,-0.01863235162267673,0.1832456445415885,0.1766131752396784,0.3857218781057522,0.2377256615753062,0.1916793429613403,0.3324390634335367,0.3528086633414386,0.0008526573759217807,0.3121532203241799,-0.09218846681303547,-0.02925271071807824,-0.2752585092959539,-0.1155420436391755,805.4578754578755,803.4432234432235,805.8608058608058,830.4395604395604,1266.410256410256,1615.347985347985,-0.368164,0.018982,0.943115,0.934601,-1.293488,7.566528,1,1,1,1,1,97.000000
2025-03-24 14:46:51.456,0.4661749202181986,0.866077203741857,0.1822510193429469,0.6149592350750387,0.2180797352524617,0.5682530765905812,-0.2548805602372918,0.1234744367989036,0.1425407491674061,0.2820138586584642,0.2314549877393398,0.1541768194569129,0.3454749095427482,0.282188019678678,-0.07142918029412176,0.3227353459821086,-0.07627885225176632,0.01913451430942055,-0.2776535691261816,-0.1663357497942195,803.8461538461539,797.8021978021978,809.8901098901099,819.1575091575091,821.5750915750916,713.5897435897436,-0.362488,0.096985,0.898071,4.351501,1.667328,-3.805695,1,1,1,1,1,97.000000
2025-03-24 14:46:51.936,,,,,,,,,,,,,,,,,,,,,,,,,,,,,,,,,,,,,,,/muse/elements/blink
2025-03-24 14:46:51.957,1.090804932593131,0.8644491245562288,0.2809002615181888,0.6149592350750387,0.7119765279929362,0.5267344655002743,-0.3933297523009198,0.1234744367989036,0.640996712174405,0.3006010608134271,0.09843296029552322,0.1541768194569129,0.4489109221800345,0.2269389602339721,-0.1705458521644398,0.3227353459821086,0.06210404694876425,-0.04720450209054969,-0.3783866510948634,-0.1663357497942195,838.901098901099,799.8168498168499,798.2051282051282,839.3040293040293,889.6703296703297,805.8608058608058,-0.383728,0.111633,0.933044,-0.852356,-0.620575,0.328979,1,1,1,1,1,97.000000
2025-03-24 14:46:52.319,,,,,,,,,,,,,,,,,,,,,,,,,,,,,,,,,,,,,,,/muse/elements/blink
2025-03-24 14:46:52.457,1.090804932593131,0.755910483831479,0.1824559599318102,0.6149592350750387,0.7119765279929362,0.495388074332538,-0.2537025846803964,0.1234744367989036,0.640996712174405,0.3707075794945572,0.1626214853997099,0.1541768194569129,0.4489109221800345,0.2370695652160422,-0.1228798018037382,0.3227353459821086,0.06210404694876425,-0.004613051118630785,-0.2257101989327365,-0.1663357497942195,845.7509157509157,803.8461538461539,799.4139194139194,863.8827838827839,947.6923076923077,778.8644688644689,-0.469910,0.013062,0.884033,-1.943970,6.908569,-0.904694,1,1,1,1,1,97.000000
2025-03-24 14:46:52.957,1.1396754065504,0.8388001853773523,0.535221503571465,0.6149592350750387,0.7051260188374071,0.4903125196792879,-0.1015676829654026,0.1234744367989036,0.6163501769089084,0.2354450092353566,0.1535804793872798,0.1541768194569129,0.4663022546968534,0.2128093116978224,-0.03627344151667709,0.3227353459821086,0.08317773243508436,-0.03697746723336674,-0.02834397232566731,-0.1663357497942195,812.3076923076924,809.8901098901099,800.2197802197802,815.934065934066,838.0952380952381,694.2490842490843,-0.491882,0.020996,0.854248,2.437439,0.306549,2.586975,1,1,1,1,1,97.000000
2025-03-24 14:46:53.465,1.1396754065504,0.9685660054715317,0.5246582335218892,0.6149592350750387,0.7051260188374071,0.6529633077180588,-0.05693501602565743,0.1234744367989036,0.6163501769089084,0.2266551584724596,0.1653443441484338,0.1541768194569129,0.4663022546968534,0.2231329844961319,0.08886823920193544,0.3227353459821086,0.08317773243508436,0.005379806123940588,0.07186585937024703,-0.1663357497942195,794.981684981685,795.7875457875458,792.5641025641025,795.3846153846154,911.8315018315019,763.1501831501831,-0.470825,0.056824,0.879883,0.837402,2.601929,3.215027,1,1,1,1,1,97.000000
2025-03-24 14:46:53.971,1.1396754065504,0.9685660054715317,0.4717453905422158,0.3198426756180267,0.7051260188374071,0.6529633077180588,-0.09154793881075464,0.140157712650657,0.6163501769089084,0.2266551584724596,0.1040321241813178,-0.02213920983584,0.4663022546968534,0.2231329844961319,0.2384960205598488,0.4586029278261713,0.08317773243508436,0.005379806123940588,0.1120055939810455,0.03888609591330068,796.1904761904763,779.2673992673992,804.6520146520147,802.6373626373627,841.7216117216118,725.6776556776557,-0.474854,0.042175,0.864380,-0.493469,-0.882263,-1.091614,1,1,1,1,1,97.000000
2025-03-24 14:46:54.457,0.6082602645493668,-0.1556034073222943,-0.05325971237000863,0.2511132590851238,-0.1349905129742522,-0.5966011086622377,-0.2452522841350983,-0.1453423419295911,0.4684559680988846,-0.05141432161241366,0.1113778508140249,0.3345218532579758,0.4291383412459516,0.7803015337374535,0.2926438333075724,0.3426032418515618,-0.0004699236423861151,0.674219395178463,0.1278885826171236,-0.0445366474834155,796.5934065934066,805.8608058608058,801.025641025641,793.3699633699634,877.1794871794872,709.9633699633699,-0.469910,0.044312,0.868652,0.979462,-1.644897,0.022430,1,1,1,1,1,97.000000
2025-03-24 14:46:54.968,0.4829655093697243,-0.2776631273922207,-0.2988612014896446,0.2207239554691802,0.04065084115426023,-0.1845823543861867,-0.3246013655744613,-0.2549638890627391,0.4834881258542058,0.02446128802625669,0.08178427923298512,0.3806505414171942,0.3981837677048326,0.6807802494155893,0.3370903590092852,0.2699148323912542,-0.0399449748009494,0.6668938606677494,0.15320336000446,-0.05884431567289716,802.2344322344322,803.040293040293,808.6813186813187,799.8168498168499,774.4322344322345,572.1611721611722,-0.467163,0.047546,0.884033,-0.164490,-1.413116,-0.964508,1,1,1,1,1,97.000000
2025-03-24 14:46:55.456,0.6759645799026726,-0.2407315581805697,-0.142133554247668,0.4819508877916033,0.2403121675339366,-0.1872476497071806,-0.3504877702627573,0.2228919023379192,0.886862660932461,0.26728227431548,0.1888647013356144,0.5641219681524128,0.3395668302308764,0.73420805972186,0.3064611397396614,0.2793952062435848,0.01695309562752441,0.6327890714915486,0.1538800810682618,-0.09596694633001811,798.6080586080586,791.7582417582418,803.8461538461539,791.3553113553114,913.040293040293,830.4395604395604,-0.463684,0.045471,0.873291,1.106567,-1.338348,0.829926,1,1,1,1,1,97.000000
2025-03-24 14:46:55.956,0.8866470937239024,-0.2603458916360205,-0.007095926485797567,0.804432237798374,0.5397671627698474,-0.1486223982164497,-0.3243503315729714,0.5539722012496389,0.9469738894616315,0.2318963604046518,0.2430171031768217,0.6367658591944104,0.3834266758027638,0.7369208956444342,0.2894191603848924,0.3481712841043899,-0.03864994627911305,0.6846523721341712,0.04411409023103689,-0.1455648048795943,807.4725274725275,808.6813186813187,809.4871794871796,802.2344322344322,856.2271062271062,700.2930402930403,-0.451538,0.049194,0.877441,0.897217,-1.472931,0.433655,1,1,1,1,1,97.000000
2025-03-24 14:46:56.457,0.9134183218511684,-0.2350247959999066,0.03629246636810703,0.8276083456553818,0.5312156541603293,-0.214390190817471,-0.3429112382874314,0.606437223490998,0.9469738894616315,0.2477924469184188,0.1872108255784719,0.6716632371903994,0.4172778076822097,0.7143675851533712,0.1445498492883968,0.3853581560234365,-0.03976642827951832,0.5829936435667749,-0.05350105417809256,-0.1742402154782405,712.7838827838829,800.2197802197802,823.992673992674,717.6190476190476,877.1794871794872,708.7545787545788,-0.451782,0.056458,0.877563,-0.291595,-1.540222,1.315918,1,1,1,1,1,97.000000
2025-03-24 14:46:56.680,,,,,,,,,,,,,,,,,,,,,,,,,,,,,,,,,,,,,,,/muse/elements/blink
2025-03-24 14:46:56.957,0.8753386156891606,0.1517905782919942,0.3858274334659382,0.8144937520605966,0.5361548308259275,-0.1232586470085184,-0.01793831465758371,0.540308873048174,0.8192942326638455,0.223040216713136,0.1753185928202208,0.6716632371903994,0.4808293153742624,0.5515410739676154,0.06895632763417807,0.3387285584585277,-0.1617577757386246,0.5281744794211641,-0.0844933387232111,-0.2131268401856471,821.1721611721612,796.996336996337,796.1904761904763,805.4578754578755,884.4322344322345,762.7472527472528,-0.457886,0.043152,0.884644,0.441132,1.816864,0.411224,1,1,1,1,1,97.000000
2025-03-24 14:46:57.062,,,,,,,,,,,,,,,,,,,,,,,,,,,,,,,,,,,,,,,/muse/elements/blink
2025-03-24 14:46:57.300,,,,,,,,,,,,,,,,,,,,,,,,,,,,,,,,,,,,,,,/muse/elements/blink
2025-03-24 14:46:57.457,0.2218183215667276,0.5910067638904174,0.7420896773355928,0.08380135911405892,0.0120050072613585,0.0499619254068835,0.2682401974488826,-0.06937693904037379,0.2838700749734219,0.3848315197246893,0.1349555247322513,0.4395783208062299,0.4189801805706102,0.2871747837199689,-0.03618557137192497,0.2074590994568062,-0.1112393367033585,0.2952129126762917,-0.1382421352630064,-0.169011572226811,814.3223443223443,791.3553113553114,806.6666666666667,819.1575091575091,753.4798534798535,609.6336996336996,-0.482666,0.047729,0.872681,0.321503,1.899109,-0.553284,1,1,1,1,1,97.000000
2025-03-24 14:46:57.957,0.1920962511563444,0.8185402919043088,0.9022945763225206,0.01504095287317939,0.02331323221384709,0.1553665470445073,0.4353351497973653,-0.09013306298366723,0.1820648370791022,0.386648230163915,0.1349555247322513,0.4290018778563366,0.4078811764161823,0.2041017830067617,0.01536300405002171,0.186148569990766,-0.09739670377313436,0.2293576041029214,-0.1514471649549488,-0.1845257028848042,803.040293040293,800.6227106227107,802.2344322344322,797.3992673992674,832.8571428571429,787.3260073260074,-0.479187,0.039490,0.866577,1.353302,-1.084137,-0.418701,1,1,1,1,1,97.000000
2025-03-24 14:46:58.457,0.1920962511563444,0.9715914864113721,1.005553767511555,0.01504095287317939,0.02331323221384709,0.2498474164966108,0.5040840631879783,-0.09013306298366723,0.1820648370791022,0.386648230163915,0.09745646662977452,0.4290018778563366,0.4078811764161823,0.2858330275107038,0.02188806283444293,0.186148569990766,-0.09739670377313436,0.2687466853646824,-0.1472172594411443,-0.1845257028848042,855.4212454212454,814.3223443223443,815.1282051282052,832.8571428571429,896.5201465201466,734.5421245421246,-0.574829,0.069580,0.797546,34.654999,42.685089,-43.275757,1,1,1,1,1,97.000000
2025-03-24 14:46:58.956,0.1920962511563444,1.001633796722022,0.8967381828404697,0.01504095287317939,0.02331323221384709,0.2828438975149903,0.360134998779162,-0.09013306298366723,0.1820648370791022,0.3223296320984591,-0.1367237847479385,0.4290018778563366,0.4078811764161823,0.3337082354480794,0.0298452956261842,0.186148569990766,-0.09739670377313436,0.2867432394224195,-0.06622829408763534,-0.1845257028848042,819.5604395604396,834.0659340659341,794.981684981685,811.0989010989011,894.908424908425,711.1721611721612,-0.645020,0.051636,0.733704,25.234222,-6.265564,-30.079193,1,1,1,1,1,97.000000
2025-03-24 14:46:59.456,0.1920962511563444,1.001633796722022,0.4957420407800135,0.01504095287317939,0.02331323221384709,0.2828438975149903,1.137771211629193,-0.09013306298366723,0.1820648370791022,0.3223296320984591,0.6815093552839352,0.4290018778563366,0.4078811764161823,0.3337082354480794,0.7710165986410886,0.186148569990766,-0.09739670377313436,0.2867432394224195,0.8052496686395226,-0.1845257028848042,764.3589743589744,799.8168498168499,813.5164835164835,765.5677655677656,846.5567765567765,614.4688644688645,-0.635193,0.016479,0.747864,-11.873169,-6.198273,20.209808,1,2,1,1,2,97.000000
2025-03-24 14:46:59.648,,,,,,,,,,,,,,,,,,,,,,,,,,,,,,,,,,,,,,,/muse/elements/blink
2025-03-24 14:46:59.957,0.1920962511563444,1.001633796722022,0.4957420407800135,0.01504095287317939,0.02331323221384709,0.2828438975149903,1.137771211629193,-0.09013306298366723,0.1820648370791022,0.3223296320984591,0.6815093552839352,0.4290018778563366,0.4078811764161823,0.3337082354480794,0.7710165986410886,0.186148569990766,-0.09739670377313436,0.2867432394224195,0.8052496686395226,-0.1845257028848042,807.8754578754579,822.7838827838829,783.2967032967033,815.5311355311355,870.7326007326008,774.4322344322345,-0.560547,0.141724,0.810181,-22.452850,-9.316101,34.169006,1,2,1,1,2,97.000000
2025-03-24 14:47:00.464,0.1920962511563444,1.001633796722022,0.3438344285638926,0.01504095287317939,0.02331323221384709,0.2828438975149903,1.136808358843308,-0.09013306298366723,0.1820648370791022,0.3223296320984591,0.6710109126999325,0.4290018778563366,0.4078811764161823,0.3337082354480794,0.774068657789034,0.186148569990766,-0.09739670377313436,0.2867432394224195,0.8460536645661559,-0.1845257028848042,790.5494505494506,790.1465201465202,798.2051282051282,816.7399267399268,930.3663003663004,799.4139194139194,-0.507568,0.065796,0.833618,-45.167389,-6.826324,76.704559,1,2,1,1,2,97.000000
2025-03-24 14:47:00.957,0.1920962511563444,1.001633796722022,0.240923080963247,0.01504095287317939,0.02331323221384709,0.2828438975149903,1.094368362363843,-0.09013306298366723,0.1820648370791022,0.3223296320984591,0.6710109126999325,0.4290018778563366,0.4078811764161823,0.3337082354480794,0.7633847298160547,0.186148569990766,-0.09739670377313436,0.2867432394224195,0.8330779441169064,-0.1845257028848042,811.9047619047619,808.6813186813187,784.9084249084249,772.8205128205128,698.2783882783883,441.2087912087912,-0.447571,0.107239,0.892517,-3.207550,-1.914062,7.185211,1,2,1,1,2,97.000000
2025-03-24 14:47:01.457,1.275029115955103,1.001633796722022,0.240923080963247,0.01504095287317939,1.032634639635792,0.2828438975149903,1.094368362363843,-0.09013306298366723,0.9354638585396873,0.3223296320984591,0.6710109126999325,0.4290018778563366,0.7172521531197484,0.3337082354480794,0.7633847298160547,0.186148569990766,0.5085114655797991,0.2867432394224195,0.8330779441169064,-0.1845257028848042,815.5311355311355,809.0842490842491,817.1428571428571,831.2454212454213,1052.051282051282,1124.175824175824,-0.560425,-0.036316,0.854187,-1.958923,13.458252,-4.314117,1,1,1,1,1,97.000000
2025-03-24 14:47:01.560,,,,,,,,,,,,,,,,,,,,,,,,,,,,,,,,,,,,,,,/muse/elements/blink
2025-03-24 14:47:01.957,1.275029115955103,1.001633796722022,0.240923080963247,0.01504095287317939,1.032634639635792,0.2828438975149903,1.094368362363843,-0.09013306298366723,0.9354638585396873,0.3223296320984591,0.6710109126999325,0.4290018778563366,0.7172521531197484,0.3337082354480794,0.7633847298160547,0.186148569990766,0.5085114655797991,0.2867432394224195,0.8330779441169064,-0.1845257028848042,748.2417582417582,789.3406593406594,767.5824175824176,732.1245421245421,959.7802197802198,820.3663003663004,-0.672546,0.102539,0.736755,-0.687866,10.445099,4.725342,1,1,1,1,1,97.000000
2025-03-24 14:47:02.157,,,,,,,,,,,,,,,,,,,,,,,,,,,,,,,,,,,,,,,/muse/elements/blink
2025-03-24 14:47:02.457,1.236916055216906,1.001633796722022,0.729986330412516,0.01504095287317939,1.067269140833987,0.2828438975149903,0.4545682858673092,-0.09013306298366723,0.9104575879329043,0.3223296320984591,0.6044556414511114,0.4290018778563366,0.7110757505809742,0.3337082354480794,0.85853100869696,0.186148569990766,0.5265667318235985,0.2867432394224195,1.050655868943853,-0.1845257028848042,755.0915750915751,815.5311355311355,806.2637362637363,774.8351648351648,1518.644688644689,1622.197802197802,-0.768127,0.096558,0.562988,8.194580,-8.777771,-7.551575,1,1,1,1,1,97.000000
2025-03-24 14:47:02.774,,,,,,,,,,,,,,,,,,,,,,,,,,,,,,,,,,,,,,,/muse/elements/blink
2025-03-24 14:47:02.957,1.236916055216906,1.001633796722022,0.7425839952196226,0.01504095287317939,1.067269140833987,0.2828438975149903,0.4139145044040159,-0.09013306298366723,0.9104575879329043,0.3223296320984591,0.6101408185852787,0.4290018778563366,0.7110757505809742,0.3337082354480794,0.8272558630509697,0.186148569990766,0.5265667318235985,0.2867432394224195,1.022213909817933,-0.1845257028848042,799.0109890109891,786.5201465201466,791.7582417582418,794.981684981685,901.7582417582418,969.4505494505495,-0.387207,0.075562,0.987366,48.636627,-23.118286,-80.816803,1,1,1,1,1,97.000000
2025-03-24 14:47:03.456,1.236916055216906,1.001633796722022,0.7355588395003876,0.01504095287317939,1.067269140833987,0.2828438975149903,0.2777644565579788,-0.09013306298366723,0.9104575879329043,0.3223296320984591,0.5889276819939515,0.4290018778563366,0.7110757505809742,0.3337082354480794,0.8569585095244175,0.186148569990766,0.5265667318235985,0.2867432394224195,1.028572205104072,-0.1845257028848042,794.1758241758242,790.1465201465202,801.8315018315019,724.4688644688645,26.19047619047619,0,-0.257202,0.043213,0.914612,28.015594,-6.108551,-46.296387,1,1,1,1,1,97.000000
2025-03-24 14:47:03.957,1.236916055216906,1.001633796722022,1.116842524108065,0.01504095287317939,1.067269140833987,0.2828438975149903,0.7828747187444691,-0.09013306298366723,0.9104575879329043,0.3223296320984591,0.6457512199443245,0.4290018778563366,0.7110757505809742,0.3337082354480794,0.4920601262288747,0.186148569990766,0.5265667318235985,0.2867432394224195,0.6215160678273192,-0.1845257028848042,801.4285714285714,801.025641025641,807.8754578754579,749.047619047619,1622.600732600733,1622.197802197802,-0.413208,0.199341,0.850586,25.944519,6.392670,-51.320801,1,1,1,1,1,97.000000
2025-03-24 14:47:04.457,1.517788136994497,1.309551772427024,1.394305881237869,0.01504095287317939,1.028775159727923,1.12743192298279,1.261963714266105,-0.09013306298366723,0.7291601115923988,0.9146421731612598,1.049346671744364,0.4290018778563366,0.7350984462074248,0.7792992016378054,0.1870035617778869,0.186148569990766,0.3497881579218521,0.6283751153633155,-0.238603658157908,-0.1845257028848042,809.8901098901099,805.0549450549451,799.8168498168499,814.3223443223443,608.021978021978,396.8864468864469,-0.370239,0.031677,0.941223,-28.987579,1.345825,17.495728,1,1,1,1,1,97.000000
2025-03-24 14:47:04.957,1.377169368006392,1.194142623424412,1.345943103891434,0.01504095287317939,0.9828272957608442,1.043551440023861,1.163207682330962,-0.09013306298366723,0.8139102859463763,0.9538448060207729,1.058722389402419,0.4290018778563366,0.7315748888205695,0.8001466383084688,0.2018516605634304,0.186148569990766,0.4064415501781943,0.6983284885023098,-0.1619961801912662,-0.1845257028848042,812.7106227106227,819.1575091575091,794.1758241758242,815.1282051282052,1011.355311355311,1232.564102564103,-0.338501,0.046570,0.941589,-29.802551,0.493469,73.743744,1,1,1,1,1,97.000000
2025-03-24 14:47:05.458,1.330645012515159,1.063302067216246,1.241021279136081,0.01504095287317939,0.9860429307605288,0.9205875052069763,1.08634112321464,-0.09013306298366723,0.8011622303381456,0.9501041375995631,1.058722389402419,0.4290018778563366,0.7103409611663003,0.8257276683523262,0.207089301476309,0.186148569990766,0.4381367335156072,0.7022748587547961,-0.1428342493742525,-0.1845257028848042,799.8168498168499,824.7985347985348,790.5494505494506,812.3076923076924,581.4285714285714,204.2857142857143,-0.327148,0.088684,0.929688,-54.191895,11.611481,133.356323,1,1,1,1,1,97.000000
2025-03-24 14:47:05.957,1.007844816273702,0.7995457203373858,1.021099147641647,0.01504095287317939,0.873615746715952,0.6445018306905745,0.6878947711688892,-0.09013306298366723,0.7379411635251619,0.7606712921372312,0.8283844661234249,0.4290018778563366,0.6744021339595299,0.8438271533245982,0.1754786487273364,0.186148569990766,0.4413633737249712,0.7333785294786248,-0.1650903383619675,-0.1845257028848042,795.3846153846154,784.5054945054945,809.4871794871796,837.6923076923077,760.3296703296703,564.5054945054945,-0.450989,0.056091,0.869873,-13.734894,9.435730,37.675629,1,1,1,1,1,97.000000
2025-03-24 14:47:06.457,1.244212325973401,0.7525651842326957,0.2491157225498181,0.01504095287317939,0.9977951177977441,0.4188989012020847,0.05312374143543674,-0.09013306298366723,1.025354683290744,0.6050721768014825,-0.007635772004669265,0.4290018778563366,0.7303254948965332,0.8541751910924686,0.1004710151974027,0.186148569990766,0.3893928372216823,0.7123052840744668,-0.3694843445288251,-0.1845257028848042,796.996336996337,807.4725274725275,799.4139194139194,801.8315018315019,905.3846153846154,840.5128205128206,-0.494995,0.079529,0.859131,-5.114136,-0.635529,8.717957,1,1,1,1,1,97.000000
2025-03-24 14:47:06.957,1.297973083338111,0.7525651842326957,0.9050706389366094,0.01504095287317939,1.02402957284385,0.4188989012020847,0.5253646428422406,-0.09013306298366723,1.025354683290744,0.6050721768014825,0.2526850348229181,0.4290018778563366,0.770492361306955,0.8541751910924686,0.3083435428492067,0.186148569990766,0.3879275488620039,0.7123052840744668,0.1611545665912051,-0.1845257028848042,791.3553113553114,809.0842490842491,779.2673992673992,806.6666666666667,793.3699633699634,578.2051282051282,-0.508240,0.065063,0.856445,0.770111,6.691742,-5.226288,1,1,1,1,1,97.000000
2025-03-24 14:47:07.133,,,,,,,,,,,,,,,,,,,,,,,,,,,,,,,,,,,,,,,/muse/elements/blink
2025-03-24 14:47:07.462,1.297973083338111,0.5108875926535971,0.9050706389366094,0.01504095287317939,1.02402957284385,0.3895140867542344,0.5253646428422406,-0.09013306298366723,1.025354683290744,0.4588376271512974,0.2526850348229181,0.4290018778563366,0.770492361306955,1.042647277237308,0.3083435428492067,0.186148569990766,0.3879275488620039,0.8265991935435743,0.1611545665912051,-0.1845257028848042,823.5897435897436,802.6373626373627,803.040293040293,840.5128205128206,786.5201465201466,601.5750915750916,-0.521484,0.063904,0.840088,-0.082245,0.530853,-0.269165,1,1,1,1,1,97.000000
2025-03-24 14:47:07.957,1.297973083338111,0.3937995934350908,0.9050706389366094,0.01504095287317939,1.02402957284385,0.3714320481656014,0.5253646428422406,-0.09013306298366723,1.025354683290744,0.4840323817486605,0.2526850348229181,0.4290018778563366,0.770492361306955,0.9987601444905579,0.3083435428492067,0.186148569990766,0.3879275488620039,0.7253590555717581,0.1611545665912051,-0.1845257028848042,796.5934065934066,803.040293040293,801.025641025641,798.6080586080586,806.6666666666667,673.6996336996338,-0.514465,0.031433,0.838806,-2.542114,-2.758942,-0.575714,1,1,1,1,1,97.000000
2025-03-24 14:47:08.457,1.297973083338111,0.3125860640537479,1.0143062935557,0.01504095287317939,1.02402957284385,0.4110685265024822,0.3287398907545781,-0.09013306298366723,1.025354683290744,0.505852514957706,0.3400780296014138,0.4290018778563366,0.770492361306955,0.9385810227924918,0.2774101722665224,0.186148569990766,0.3879275488620039,0.5924282722966664,0.1841653785824972,-0.1845257028848042,797.8021978021978,806.2637362637363,809.8901098901099,795.3846153846154,855.0183150183151,718.4249084249085,-0.503235,-0.007629,0.859314,3.947754,-2.183228,-5.644989,1,2,1,1,2,97.000000
2025-03-24 14:47:08.970,1.297973083338111,0.2266403632001329,0.7341147008997756,0.01504095287317939,1.02402957284385,0.3532223656544182,0.08692697820867223,-0.09013306298366723,1.025354683290744,0.4852465002193905,0.396344902871737,0.4290018778563366,0.770492361306955,0.8003313839290949,0.1536806095010761,0.186148569990766,0.3879275488620039,0.3725429518817422,0.0004049455061678048,-0.1845257028848042,780.0732600732601,831.2454212454213,757.9120879120879,786.9230769230769,923.919413919414,918.2783882783883,-0.517029,0.023926,0.848755,19.753723,-10.975952,-35.327911,1,2,1,1,2,97.000000
2025-03-24 14:47:09.457,0.2762804259329371,0.6675572921894277,1.100050776732519,0.01504095287317939,-0.07104171358883656,0.4470701692443083,0.3993341812992899,-0.09013306298366723,0.2244544911251064,0.4582223548112027,0.4312580871752308,0.4290018778563366,0.1927830244605163,0.5759270385192921,0.1316852706128551,0.186148569990766,-0.3688518028201976,0.1315517363900836,-0.1100822798963665,-0.1845257028848042,808.2783882783883,791.3553113553114,810.6959706959707,784.9084249084249,747.8388278388279,618.4981684981685,-0.288635,0.000000,0.932861,60.823822,-4.269257,-124.997253,1,1,1,1,1,97.000000
2025-03-24 14:47:09.957,1.099575191180521,0.7637698263930262,1.096715635460924,1.308134407884165,0.2305737698778509,0.2871111017041205,0.3901600763310051,0.7015950913397815,0.333008918019388,0.241448340870476,0.2456890480612506,0.4608385752422015,0.2754185061103173,0.172691975876238,0.04563634935858071,0.4614866648205269,-0.03815025281765709,-0.1182743979048046,-0.3077945493143326,0.1751766499403679,833.2600732600733,820.3663003663004,784.1025641025641,761.5384615384615,814.3223443223443,722.8571428571429,-0.364685,0.077942,0.906311,49.645996,2.983246,-101.138763,1,1,1,1,1,97.000000
2025-03-24 14:47:10.467,1.214829737039557,1.112776783585561,1.559199737842069,1.478882179352856,0.4043128820394155,0.6152737217540363,1.105866211379027,0.9126758227743959,0.4747410746569273,0.2293527026292886,0.8473107522085183,0.9025846414131393,0.3509130137039562,0.2209563850029342,0.2282998489373389,0.7233530939578886,0.4039696886851523,-0.04721566149561451,0.2527474360764339,0.7430700210534013,807.0695970695971,800.6227106227107,805.0549450549451,797.8021978021978,845.7509157509157,693.040293040293,-0.440186,0.106689,0.884644,-1.368256,-0.104675,4.418793,1,1,1,1,1,97.000000
2025-03-24 14:47:10.957,1.382186769454301,1.112776783585561,1.640571685103499,1.478882179352856,0.5184226635513066,0.6152737217540363,1.195073649338034,0.9126758227743959,0.4747410746569273,0.2293527026292886,0.8473107522085183,0.9025846414131393,0.4115328819951269,0.2209563850029342,0.2502387168352505,0.7233530939578886,0.5675753661250579,-0.04721566149561451,0.3258390015029227,0.7430700210534013,801.025641025641,799.4139194139194,803.8461538461539,795.3846153846154,768.3882783882784,595.934065934066,-0.451050,0.080383,0.882446,-9.712372,16.172333,14.056396,1,1,1,1,1,97.000000
2025-03-24 14:47:11.077,,,,,,,,,,,,,,,,,,,,,,,,,,,,,,,,,,,,,,,/muse/elements/blink
2025-03-24 14:47:11.456,1.361648653406815,1.112776783585561,1.640571685103499,1.394472666651036,0.5866449178078758,0.6152737217540363,1.195073649338034,0.8689541673400023,0.3967208295010871,0.2293527026292886,0.8473107522085183,0.9021817693829313,0.41512901817603,0.2209563850029342,0.2502387168352505,0.7570777645780361,0.7668873937164652,-0.04721566149561451,0.3258390015029227,0.8329186483179051,809.4871794871796,798.6080586080586,799.4139194139194,811.0989010989011,803.4432234432235,806.6666666666667,-0.495117,0.075073,0.852112,-1.046753,-4.912262,2.699127,1,1,1,1,1,97.000000
2025-03-24 14:47:11.960,1.361648653406815,1.112776783585561,1.640571685103499,1.414489700366057,0.5866449178078758,0.6152737217540363,1.195073649338034,0.7717969586827013,0.3967208295010871,0.2293527026292886,0.8473107522085183,0.9020031468344066,0.41512901817603,0.2209563850029342,0.2502387168352505,0.7868016999549361,0.7668873937164652,-0.04721566149561451,0.3258390015029227,0.8436567612858308,794.981684981685,798.6080586080586,803.8461538461539,792.5641025641025,817.948717948718,666.0439560439561,-0.499634,0.042847,0.853210,-5.764618,-2.557068,15.222778,1,1,1,1,1,97.000000
2025-03-24 14:47:12.438,,,,,,,,,,,,,,,,,,,,,,,,,,,,,,,,,,,,,,,/muse/elements/blink
2025-03-24 14:47:12.457,1.361648653406815,1.112776783585561,0.918681450647318,1.414489700366057,0.5866449178078758,0.6152737217540363,0.5508699014710231,0.7717969586827013,0.3967208295010871,0.2293527026292886,0.5971024834486632,0.9020031468344066,0.41512901817603,0.2209563850029342,0.6690123004213152,0.7868016999549361,0.7668873937164652,-0.04721566149561451,0.5407942261268833,0.8436567612858308,838.4981684981685,804.6520146520147,770.8058608058608,819.96336996337,869.5238095238095,692.2344322344322,-0.383606,-0.027222,0.910339,-45.840302,-9.689941,98.529358,1,1,1,1,1,97.000000
2025-03-24 14:47:12.956,1.361648653406815,1.112776783585561,0.918681450647318,1.414489700366057,0.5866449178078758,0.6152737217540363,0.5508699014710231,0.7717969586827013,0.3967208295010871,0.2293527026292886,0.5971024834486632,0.9020031468344066,0.41512901817603,0.2209563850029342,0.6690123004213152,0.7868016999549361,0.7668873937164652,-0.04721566149561451,0.5407942261268833,0.8436567612858308,817.948717948718,799.8168498168499,817.948717948718,861.8681318681319,901.7582417582418,843.7362637362637,-0.343079,0.031250,0.948608,-45.578613,6.011353,101.243439,1,1,1,1,1,97.000000
2025-03-24 14:47:13.457,1.361648653406815,1.112776783585561,0.918681450647318,1.414489700366057,0.5866449178078758,0.6152737217540363,0.5508699014710231,0.7717969586827013,0.3967208295010871,0.2293527026292886,0.5971024834486632,0.9020031468344066,0.41512901817603,0.2209563850029342,0.6690123004213152,0.7868016999549361,0.7668873937164652,-0.04721566149561451,0.5407942261268833,0.8436567612858308,810.6959706959707,801.4285714285714,805.4578754578755,802.2344322344322,898.5347985347986,754.2857142857143,-0.397156,0.090454,0.901978,-0.859833,2.100983,7.162781,1,2,1,1,2,97.000000
2025-03-24 14:47:13.730,,,,,,,,,,,,,,,,,,,,,,,,,,,,,,,,,,,,,,,/muse/elements/blink
2025-03-24 14:47:13.956,1.361648653406815,1.112776783585561,0.918681450647318,1.414489700366057,0.5866449178078758,0.6152737217540363,0.5508699014710231,0.7717969586827013,0.3967208295010871,0.2293527026292886,0.5971024834486632,0.9020031468344066,0.41512901817603,0.2209563850029342,0.6690123004213152,0.7868016999549361,0.7668873937164652,-0.04721566149561451,0.5407942261268833,0.8436567612858308,696.6666666666667,821.978021978022,819.5604395604396,722.4542124542124,817.1428571428571,455.7142857142857,-0.515686,0.170959,0.772339,26.168823,-47.103882,-57.638702,1,2,1,1,2,97.000000
2025-03-24 14:47:14.105,,,,,,,,,,,,,,,,,,,,,,,,,,,,,,,,,,,,,,,/muse/elements/blink
2025-03-24 14:47:14.464,1.361648653406815,1.112776783585561,0.918681450647318,1.414489700366057,0.5866449178078758,0.6152737217540363,0.5508699014710231,0.7717969586827013,0.3967208295010871,0.2293527026292886,0.5971024834486632,0.9020031468344066,0.41512901817603,0.2209563850029342,0.6690123004213152,0.7868016999549361,0.7668873937164652,-0.04721566149561451,0.5407942261268833,0.8436567612858308,795.7875457875458,784.5054945054945,806.2637362637363,781.6849816849817,654.3589743589744,193.8095238095238,-0.389404,0.002014,0.982666,16.239624,1.069183,-37.234497,1,2,1,1,2,97.000000
2025-03-24 14:47:14.957,1.361648653406815,1.112776783585561,0.918681450647318,1.414489700366057,0.5866449178078758,0.6152737217540363,0.5508699014710231,0.7717969586827013,0.3967208295010871,0.2293527026292886,0.5971024834486632,0.9020031468344066,0.41512901817603,0.2209563850029342,0.6690123004213152,0.7868016999549361,0.7668873937164652,-0.04721566149561451,0.5407942261268833,0.8436567612858308,801.025641025641,818.7545787545788,782.893772893773,740.5860805860806,474.2490842490843,0,-0.343689,0.112183,0.740051,9.278717,1.024323,-32.748413,1,2,1,1,2,97.000000
2025-03-24 14:47:15.462,1.361648653406815,1.112776783585561,0.918681450647318,1.414489700366057,0.5866449178078758,0.6152737217540363,0.5508699014710231,0.7717969586827013,0.3967208295010871,0.2293527026292886,0.5971024834486632,0.9020031468344066,0.41512901817603,0.2209563850029342,0.6690123004213152,0.7868016999549361,0.7668873937164652,-0.04721566149561451,0.5407942261268833,0.8436567612858308,795.7875457875458,801.8315018315019,813.1135531135532,764.3589743589744,1162.857142857143,992.014652014652,-0.359802,-0.107971,0.897583,-9.809570,-6.392670,40.875702,1,2,1,1,2,97.000000
2025-03-24 14:47:15.957,1.022300191396791,0.4379307763953699,1.433259925237584,1.414489700366057,1.000531949963569,0.936261798173725,0.7275697208670389,0.7717969586827013,0.3760598852233002,0.5632132444683926,0.6131756178277683,0.9020031468344066,0.5228330849466032,0.744735723121409,0.3722178980989286,0.7868016999549361,0.03726772829469407,0.4608674349418527,-0.1836532974678913,0.8436567612858308,772.8205128205128,799.4139194139194,803.040293040293,747.032967032967,1619.78021978022,1622.197802197802,-0.361755,0.170166,0.966492,1.839294,-2.018738,-1.891632,1,1,1,1,1,97.000000
2025-03-24 14:47:16.471,1.117423250223295,0.7374973806591836,1.310601132389011,1.414489700366057,1.311492489821622,1.008762632491431,0.6826638896033477,0.7717969586827013,0.7690594653772428,0.5633169440546058,0.6532564488113995,0.9020031468344066,0.5766822738559925,0.6707766208652844,0.2983111905760055,0.7868016999549361,0.2436657502948307,0.4161695900509951,-0.1324514476823603,0.8436567612858308,803.040293040293,804.2490842490843,804.6520146520147,823.992673992674,1122.161172161172,1557.728937728938,-0.336548,-0.127808,1.250793,-1.465454,-10.063782,0.426178,1,1,1,1,1,97.000000
2025-03-24 14:47:16.957,1.361604570144044,0.8919003002347744,1.163855568692877,1.414489700366057,1.37705597114284,1.005340402408847,0.7115864828250037,0.7717969586827013,0.8946416672751883,0.5786094363011732,0.736161060788582,0.9020031468344066,0.6629110646355908,0.6050239969812689,0.260651265672504,0.7868016999549361,0.2507497924985236,0.4024684394928683,-0.1166014108632229,0.8436567612858308,757.1062271062272,785.3113553113553,799.4139194139194,720.4395604395604,429.9267399267399,6.446886446886447,-0.517273,0.130188,1.129028,5.136566,20.568695,-4.104767,1,1,1,1,1,97.000000
2025-03-24 14:47:17.456,1.580382874102067,1.01333483642426,0.9583712182884051,1.414489700366057,1.452508922013026,0.9615086864243321,0.7568449759577451,0.7717969586827013,1.003988575519767,0.6110874283509011,0.7412115101499523,0.9020031468344066,0.7151042882861892,0.5469819587865613,0.1463418941812581,0.7868016999549361,0.3111171482353773,0.3278592143846543,-0.1103724249591389,0.8436567612858308,793.7728937728938,801.4285714285714,813.1135531135532,825.6043956043957,1489.6336996337,1622.197802197802,-0.438660,0.143250,0.953369,-1.704712,4.732819,2.220612,1,1,1,1,1,97.000000
2025-03-24 14:47:17.957,1.646350973869889,1.047271651451448,0.9748199073457386,1.414489700366057,1.346034559761467,0.8502304643265723,0.6886532867673937,0.7717969586827013,0.9926420541080546,0.5279618928940922,0.693804506552098,0.9020031468344066,0.7166179383125022,0.5689335049775296,0.1435567788843719,0.7868016999549361,0.2358802619845083,0.2451241302713272,-0.1679112944371023,0.8436567612858308,810.2930402930403,813.1135531135532,799.0109890109891,782.893772893773,0,0,-0.405945,0.044495,0.746338,-1.151428,-4.388885,5.674896,1,1,1,1,1,97.000000
2025-03-24 14:47:18.462,1.542241597032215,0.9678052832893462,0.8862411082629397,1.414489700366057,1.23822452117597,0.8037471427482341,0.5793694193444395,0.7717969586827013,0.9728154736858744,0.6067725569641567,0.6465614766426303,0.9020031468344066,0.6345667257566406,0.608402257347768,0.1350139805950797,0.7868016999549361,0.1281999312622616,0.2279706670690269,-0.210591733806432,0.8436567612858308,802.6373626373627,790.5494505494506,811.0989010989011,763.1501831501831,232.4908424908425,0.4029304029304029,-0.344177,0.075928,0.748779,0.650482,-7.902985,-5.757141,1,1,1,1,1,97.000000
2025-03-24 14:47:18.957,1.330934801716167,0.9961185177849711,0.9236281987626686,1.414489700366057,1.214357561157474,0.9237776980290245,0.4734685010935983,0.7717969586827013,0.9586037026511559,0.6345301767062876,0.459931499274554,0.9020031468344066,0.536464363743502,0.6569399215620697,0.06537919039180592,0.7868016999549361,0.0536610274101602,0.3298156026834757,-0.2591108842860995,0.8436567612858308,808.6813186813187,804.6520146520147,804.6520146520147,782.893772893773,603.5897435897436,0,-0.336182,0.045837,0.687500,-3.843079,0.755157,13.719940,1,1,1,1,1,97.000000
2025-03-24 14:47:19.457,1.255278147275722,1.008878504587683,0.7651138974545033,1.414489700366057,1.231819146025874,0.9544740766016822,0.5501556248944448,0.7717969586827013,0.8315096769384736,0.6486223361982127,0.5363957650806377,0.9020031468344066,0.4442040660768514,0.6179481024252242,0.02529131230461132,0.7868016999549361,0.005294781677801261,0.3822563584306441,-0.3701661857463917,0.8436567612858308,788.5347985347986,799.0109890109891,809.0842490842491,747.032967032967,1422.747252747253,1624.615384615385,-0.335510,0.158936,0.736877,5.129089,-2.003784,-12.815247,1,1,1,1,1,97.000000
2025-03-24 14:47:19.957,1.25899732739149,1.029371368207121,0.8276279460767562,1.414489700366057,1.312128949245322,1.078410287161592,0.6272687627606451,0.7717969586827013,0.8262051031703179,0.6500224162778153,0.3439565763591751,0.9020031468344066,0.4943354092195199,0.5851784717048955,-0.02227379113102502,0.7868016999549361,0.1137477110226548,0.3432794044359971,-0.4751951941762896,0.8436567612858308,784.5054945054945,807.0695970695971,810.6959706959707,788.1318681318681,1330.476190476191,1620.989010989011,-0.429199,-0.044739,0.978699,7.364655,2.893524,-5.286102,1,1,1,1,1,97.000000
2025-03-24 14:47:20.462,1.368466259141784,1.007222108789298,0.8638780062673276,1.414489700366057,1.367781797347356,1.066402769894899,0.6775211699995225,0.7717969586827013,1.005129095154824,0.551549867423912,0.3266837108955692,0.9020031468344066,0.5602947029795533,0.5055823489444677,-0.01107702183790885,0.7868016999549361,0.05887677328503888,0.2318279852345497,-0.4572970197176084,0.8436567612858308,832.8571428571429,832.4542124542124,768.3882783882784,847.3626373626374,1332.087912087912,1622.197802197802,-0.279846,0.175110,0.993225,49.182434,-4.710388,-108.645477,1,1,1,1,1,97.000000
2025-03-24 14:47:20.545,,,,,,,,,,,,,,,,,,,,,,,,,,,,,,,,,,,,,,,/muse/elements/blink
2025-03-24 14:47:20.956,1.597497992158767,1.005886877814922,1.249030261412374,1.414489700366057,1.435597745874333,1.098687705356715,0.8063610453975848,0.7717969586827013,0.989920121444069,0.5060084326358574,0.3891439101885223,0.9020031468344066,0.6047961989135506,0.5171865908235297,-0.07936374327983368,0.7868016999549361,0.009562848835697935,0.1977250236969582,-0.4148749364428888,0.8436567612858308,790.1465201465202,799.8168498168499,786.5201465201466,759.5238095238095,370.6959706959707,1.611721611721612,-0.129028,0.134949,1.019531,47.485199,-19.065857,-151.046448,1,1,1,1,1,97.000000
2025-03-24 14:47:21.457,1.745148955024005,1.01704569825975,1.425558625769696,1.414489700366057,1.486255330018472,1.05182211394451,0.868772098957567,0.7717969586827013,0.9728519981963866,0.2383070226386175,0.3522988859665223,0.9020031468344066,0.5910503542353824,0.5445760425580108,-0.07442303207279433,0.7868016999549361,-0.1427187984154921,0.1788184761382457,-0.3316258264389287,0.8436567612858308,802.6373626373627,801.8315018315019,832.4542124542124,833.2600732600733,716.007326007326,347.3260073260074,-0.344482,-0.042053,0.934937,28.860474,12.000275,-77.452240,1,1,1,1,1,97.000000
2025-03-24 14:47:21.957,1.746011674373277,1.016517397589647,1.647867977997058,1.414489700366057,1.238417115278656,1.09728574493337,0.9979903382103145,0.7717969586827013,0.885605828025209,0.05662310564382075,0.314127202353475,0.9020031468344066,0.509056252873583,0.5984110567132224,-0.06128377197573529,0.7868016999549361,0.1667888183358754,0.1988769008541843,-0.4159403673337176,0.8436567612858308,825.2014652014652,823.5897435897436,801.025641025641,787.7289377289378,695.8608058608058,221.6117216117216,-0.339905,-0.099976,0.924500,32.531586,3.050537,-73.317566,1,1,1,1,1,97.000000
2025-03-24 14:47:22.457,1.621332682643485,1.016517397589647,1.647867977997058,1.414489700366057,1.055511594517688,1.09728574493337,0.9979903382103145,0.7717969586827013,0.5856901611130413,0.05662310564382075,0.314127202353475,0.9020031468344066,0.4657109343338707,0.5984110567132224,-0.06128377197573529,0.7868016999549361,0.269095077021615,0.1988769008541843,-0.4159403673337176,0.8436567612858308,803.8461538461539,789.7435897435897,809.8901098901099,805.0549450549451,336.4468864468865,4.835164835164836,-0.516357,-0.001648,0.852783,-1.121521,13.323669,15.207825,1,1,1,1,1,97.000000
2025-03-24 14:47:22.818,,,,,,,,,,,,,,,,,,,,,,,,,,,,,,,,,,,,,,,/muse/elements/blink
2025-03-24 14:47:22.957,1.034166960260714,1.016517397589647,1.647867977997058,1.414489700366057,0.07120995921199762,1.09728574493337,0.9979903382103145,0.7717969586827013,1.074876691319709,0.05662310564382075,0.314127202353475,0.9020031468344066,0.8491537554571653,0.5984110567132224,-0.06128377197573529,0.7868016999549361,0.7535697071385633,0.1988769008541843,-0.4159403673337176,0.8436567612858308,812.3076923076924,805.0549450549451,807.8754578754579,896.5201465201466,1623.809523809524,1622.197802197802,-0.618347,0.159058,0.798035,-5.809479,0.897217,15.574188,1,1,1,1,1,97.000000
2025-03-24 14:47:23.457,1.033335191644476,1.016517397589647,1.647867977997058,1.414489700366057,0.03117471194303954,1.09728574493337,0.9979903382103145,0.7717969586827013,1.072359177918273,0.05662310564382075,0.314127202353475,0.9020031468344066,0.9048999314923603,0.5984110567132224,-0.06128377197573529,0.7868016999549361,0.8179407943379047,0.1988769008541843,-0.4159403673337176,0.8436567612858308,795.7875457875458,771.6117216117216,848.1684981684982,827.2161172161173,262.7106227106227,0,-0.670959,0.109619,0.727295,-15.506897,-0.112152,19.858398,1,1,1,1,1,97.000000
2025-03-24 14:47:23.957,1.033335191644476,1.016517397589647,1.647867977997058,1.414489700366057,0.03117471194303954,1.09728574493337,0.9979903382103145,0.7717969586827013,1.072359177918273,0.05662310564382075,0.314127202353475,0.9020031468344066,0.9048999314923603,0.5984110567132224,-0.06128377197573529,0.7868016999549361,0.8179407943379047,0.1988769008541843,-0.4159403673337176,0.8436567612858308,787.7289377289378,810.2930402930403,787.7289377289378,779.2673992673992,1360.29304029304,1619.377289377289,-0.473206,0.000671,0.813416,-39.170990,-6.766510,54.139557,1,1,1,1,1,97.000000
2025-03-24 14:47:24.457,0.9504358469430314,1.016517397589647,1.647867977997058,1.414489700366057,0.5929924036431405,1.09728574493337,0.9979903382103145,0.7717969586827013,0.7564694455049367,0.05662310564382075,0.314127202353475,0.9020031468344066,0.8231310095281172,0.5984110567132224,-0.06128377197573529,0.7868016999549361,0.6800632887735354,0.1988769008541843,-0.4159403673337176,0.8436567612858308,806.6666666666667,812.7106227106227,805.8608058608058,817.1428571428571,987.1794871794872,1008.534798534799,-0.498413,0.136536,0.855225,-48.038483,-1.472931,58.834991,1,1,1,1,1,97.000000
2025-03-24 14:47:24.959,1.19385191323109,1.016517397589647,1.647867977997058,1.414489700366057,0.6311623741589412,1.09728574493337,0.9979903382103145,0.7717969586827013,0.7702487138653267,0.05662310564382075,0.314127202353475,0.9020031468344066,0.825027760735132,0.5984110567132224,-0.06128377197573529,0.7868016999549361,0.5412844561057346,0.1988769008541843,-0.4159403673337176,0.8436567612858308,771.2087912087912,798.2051282051282,799.4139194139194,788.5347985347986,848.5714285714286,807.8754578754579,-0.509399,0.074768,0.869141,-10.699310,0.687866,9.996490,1,1,1,1,1,97.000000
2025-03-24 14:47:25.233,,,,,,,,,,,,,,,,,,,,,,,,,,,,,,,,,,,,,,,/muse/elements/blink
2025-03-24 14:47:25.458,1.19385191323109,1.016517397589647,1.647867977997058,1.414489700366057,0.6311623741589412,1.09728574493337,0.9979903382103145,0.7717969586827013,0.7702487138653267,0.05662310564382075,0.314127202353475,0.9020031468344066,0.825027760735132,0.5984110567132224,-0.06128377197573529,0.7868016999549361,0.5412844561057346,0.1988769008541843,-0.4159403673337176,0.8436567612858308,812.3076923076924,810.2930402930403,805.8608058608058,821.978021978022,809.0842490842491,648.7179487179487,-0.694946,0.013977,0.691833,-15.035858,6.116028,15.118103,1,1,1,1,1,97.000000
2025-03-24 14:47:25.956,1.322010338624871,0.9965605672513844,1.647867977997058,1.414489700366057,0.6594531227066582,0.8105146909276714,0.9979903382103145,0.7717969586827013,0.50946782041193,0.999392713983447,0.314127202353475,0.9020031468344066,0.8265392197560564,0.8460043203683343,-0.06128377197573529,0.7868016999549361,0.3856332284970692,1.022279256577315,-0.4159403673337176,0.8436567612858308,784.1025641025641,804.2490842490843,811.0989010989011,764.3589743589744,839.7069597069598,601.978021978022,-0.711182,0.061646,0.677368,5.188904,-11.746063,-9.084320,1,1,1,1,1,97.000000
2025-03-24 14:47:26.305,,,,,,,,,,,,,,,,,,,,,,,,,,,,,,,,,,,,,,,/muse/elements/blink
2025-03-24 14:47:26.457,1.35123509415782,0.8215641980853918,0.1453208226626894,1.414489700366057,0.683428953736837,0.6632278884058398,0.01255268955704343,0.7717969586827013,0.447081384459453,0.999392713983447,0.1930829141929549,0.9020031468344066,0.8183881336307397,0.8524454720895498,0.5134079081261499,0.7868016999549361,0.3322596803449232,0.9447897020625704,0.08307554455568762,0.8436567612858308,809.8901098901099,804.2490842490843,793.3699633699634,802.2344322344322,827.6190476190476,788.9377289377289,-0.597595,0.034607,0.781372,0.553284,-10.504913,-1.271057,1,1,1,1,1,97.000000
2025-03-24 14:47:26.957,1.35123509415782,0.5261944790750642,0.1453208226626894,1.414489700366057,0.683428953736837,0.5316349019414413,0.01255268955704343,0.7717969586827013,0.447081384459453,0.9879242782387425,0.1930829141929549,0.9020031468344066,0.8183881336307397,0.7750314461766206,0.5134079081261499,0.7868016999549361,0.3322596803449232,0.8590060198542813,0.08307554455568762,0.8436567612858308,801.8315018315019,800.6227106227107,805.4578754578755,802.6373626373627,868.3150183150184,653.956043956044,-0.511230,0.061584,0.821289,-3.865509,-13.420868,-3.686066,1,1,1,1,1,97.000000
2025-03-24 14:47:27.456,1.35123509415782,0.2751398330401442,0.1453208226626894,1.414489700366057,0.683428953736837,0.3959891089006634,0.01255268955704343,0.7717969586827013,0.447081384459453,0.4084885035412404,0.1930829141929549,0.9020031468344066,0.8183881336307397,0.6489652853056932,0.5134079081261499,0.7868016999549361,0.3322596803449232,0.6316539375293656,0.08307554455568762,0.8436567612858308,813.919413919414,795.7875457875458,778.4615384615385,770.8058608058608,769.1941391941392,569.3406593406594,-0.268677,0.163574,0.956848,86.282349,-23.791199,-148.093109,1,1,1,1,1,97.000000
2025-03-24 14:47:27.957,1.35123509415782,0.2568276806735235,0.1453208226626894,1.414489700366057,0.683428953736837,0.4407821503710122,0.01255268955704343,0.7717969586827013,0.447081384459453,0.3567622681162536,0.1930829141929549,0.9020031468344066,0.8183881336307397,0.461665875872692,0.5134079081261499,0.7868016999549361,0.3322596803449232,0.4922794136487111,0.08307554455568762,0.8436567612858308,802.2344322344322,780.4761904761905,807.8754578754579,799.8168498168499,907.8021978021978,821.5750915750916,-0.237854,0.185059,0.953186,19.387360,-9.286194,-82.147675,1,2,1,1,2,97.000000
2025-03-24 14:47:28.470,1.35123509415782,0.1587325790435715,1.129790241565243,1.414489700366057,0.683428953736837,-0.3636721261126192,0.8106571099446277,0.7717969586827013,0.447081384459453,0.1971380367431648,0.4859599284222556,0.9020031468344066,0.8183881336307397,0.1881059322384278,0.1125630733478301,0.7868016999549361,0.3322596803449232,0.03275021213676873,-0.07659967672980487,0.8436567612858308,809.8901098901099,785.7142857142858,816.7399267399268,804.6520146520147,852.6007326007326,633.8095238095239,-0.411316,0.053223,0.896667,8.224487,-1.203766,-17.809753,1,2,1,1,2,97.000000
2025-03-24 14:47:28.956,0.9122235889885844,0.1587325790435715,1.367437213557754,1.195067966255872,0.7818922996453622,-0.3636721261126192,1.096745764549008,0.5518390234411974,0.8555919401005185,0.1971380367431648,0.6807756306406085,0.8982324811171245,0.7557877399365804,0.1881059322384278,0.1270994308219275,0.5637244183480661,0.4435565024655853,0.03275021213676873,0.04150248649432169,0.4014683985957362,783.6996336996338,813.5164835164835,770.4029304029305,765.1648351648352,823.1868131868132,628.974358974359,-0.437134,0.101685,0.896790,-0.740204,7.723541,2.811279,1,1,1,1,1,97.000000
2025-03-24 14:47:29.457,0.8394035480045489,0.1587325790435715,1.304735706463742,1.268852882534502,0.6535739015989344,-0.3636721261126192,1.04304233124452,0.4203422054060239,0.8700732075853663,0.1971380367431648,0.6807756306406085,0.8982324811171245,0.7136196031573422,0.1881059322384278,0.1634982167125281,0.539558233247038,0.3651758727601216,0.03275021213676873,0.04570159164434377,0.2825203682033758,805.4578754578755,794.981684981685,800.2197802197802,790.1465201465202,801.025641025641,622.1245421245421,-0.477783,0.055054,0.870911,4.351501,-4.388885,-1.001892,1,1,1,1,1,97.000000
2025-03-24 14:47:29.970,0.8173897897827351,0.1587325790435715,1.162450354218546,1.176820206374216,0.5054197903008136,-0.3636721261126192,0.8262156956498533,0.3979999072079923,0.7816663299943105,0.1971380367431648,0.6897526905632114,0.9048884162773194,0.6514692055036448,0.1881059322384278,0.1516673292284472,0.491582761739243,0.3936793141482871,0.03275021213676873,-0.01548558024524093,0.2913015728559929,787.7289377289378,789.7435897435897,805.8608058608058,765.5677655677656,860.2564102564103,645.8974358974359,-0.397400,0.036011,0.893921,-32.778320,-3.917847,60.532227,1,1,1,1,1,97.000000
2025-03-24 14:47:30.458,0.6836637619131863,0.1587325790435715,0.8215642149339814,1.157771973597681,0.08679781558773586,-0.3636721261126192,0.1971784588362205,0.1576076435533062,0.4895685375077711,0.1971380367431648,0.2575792424336495,0.6937935203168073,0.5258916111526526,0.1881059322384278,0.1796304218796971,0.4050226998094072,0.3384006048108071,0.03275021213676873,-0.082842094683239,0.1433272089717417,855.0183150183151,793.3699633699634,788.5347985347986,856.6300366300367,823.1868131868132,730.1098901098901,-0.318054,0.031738,0.934998,-58.520966,0.672913,110.529633,1,1,1,1,1,97.000000
2025-03-24 14:47:30.966,0.6836637619131863,0.5065491578469665,0.9019880841543638,1.157771973597681,0.08679781558773586,0.08766357379554265,0.1330629850386687,0.1576076435533062,0.4895685375077711,0.4319511619825184,0.2327231516484106,0.6937935203168073,0.5258916111526526,1.012646483946009,0.1275406888185399,0.4050226998094072,0.3384006048108071,1.025271974004528,-0.1275068218494737,0.1433272089717417,819.1575091575091,809.8901098901099,780.8791208791209,814.3223443223443,988.7912087912089,842.5274725274726,-0.412476,0.046936,0.899292,-25.854797,1.330872,57.548981,1,1,1,1,1,97.000000
2025-03-24 14:47:31.466,0.6836637619131863,0.9632807130496356,1.158309297466808,1.157771973597681,0.08679781558773586,0.1295597309934008,0.3873196307344864,0.1576076435533062,0.4895685375077711,0.3429789197633621,0.3127957219305958,0.6937935203168073,0.5258916111526526,0.1069364327327013,0.07230383483051615,0.4050226998094072,0.3384006048108071,-0.01384136664567453,-0.4094592618253934,0.1433272089717417,790.952380952381,817.1428571428571,802.6373626373627,845.3479853479854,859.8534798534798,696.2637362637363,-0.431030,0.049927,0.903137,-1.158905,-2.250519,5.278625,1,1,1,1,1,97.000000
2025-03-24 14:47:31.958,0.6836637619131863,0.8739620463446347,1.066073755509323,1.157771973597681,0.08679781558773586,0.3647477716014701,0.5377531487130076,0.1576076435533062,0.4895685375077711,0.4918461005545556,0.4553728252398682,0.6937935203168073,0.5258916111526526,0.4802767697315052,0.08434143742436258,0.4050226998094072,0.3384006048108071,0.2038492112108101,-0.2486359567274311,0.1433272089717417,790.5494505494506,821.5750915750916,785.7142857142858,793.7728937728938,727.6923076923077,530.6593406593407,-0.408203,0.122253,0.893311,9.562836,-8.785248,-29.570770,1,1,1,1,1,97.000000
2025-03-24 14:47:32.457,0.4062956124106197,0.9250864270081122,1.065399536234881,1.157771973597681,-0.0225611465773946,0.3801061538412246,0.4622199114931584,0.1576076435533062,0.3935233333637209,0.4918461005545556,0.4553728252398682,0.6937935203168073,0.2932783063972826,0.6002327950072941,0.04258755154746933,0.4050226998094072,0.2214063745126075,0.4125301543457713,-0.1904814636317801,0.1433272089717417,789.7435897435897,804.2490842490843,786.5201465201466,800.2197802197802,794.5787545787546,568.9377289377289,-0.242554,0.051392,0.973999,47.731934,-11.028290,-125.176697,1,1,1,1,1,97.000000
2025-03-24 14:47:32.957,0.3493413637339044,0.7704085351556724,1.038790273485892,1.157771973597681,-0.1836137592058215,0.320908684562849,0.3945664680651442,0.1576076435533062,0.5222735449527868,0.4611639854265793,0.4233905785907607,0.6937935203168073,0.6159464385299275,0.7383782568649258,0.07267440937665347,0.4050226998094072,0.2630671756474829,0.5078556341764342,-0.1267097585510732,0.1433272089717417,807.0695970695971,828.021978021978,808.2783882783883,809.4871794871796,848.1684981684982,709.1575091575091,-0.321716,0.064392,0.929443,43.739319,-0.284119,-98.080750,1,1,1,1,1,97.000000
2025-03-24 14:47:33.457,0.4319507226835358,0.7455383406999847,1.036397862188498,1.157771973597681,0.1767949143610142,0.02855406688569827,0.02261177607217206,0.1576076435533062,0.5582660977134927,0.4869265223962165,0.1331289549399023,0.6937935203168073,0.6737123192938083,0.817230350373537,0.1409607742996221,0.4050226998094072,0.3289504963219323,0.752664333420771,-0.137821961807899,0.1433272089717417,796.996336996337,813.5164835164835,797.3992673992674,791.7582417582418,880.4029304029305,735.7509157509157,-0.381104,0.076050,0.919189,1.637421,1.824341,-0.299072,1,1,1,1,1,97.000000
2025-03-24 14:47:33.960,0.4459577679898286,0.5614296778862488,1.072727734023129,0.975170450950882,0.296500363182321,0.03545313697575012,0.1260679085292911,0.3531572316417311,0.4986087669911041,0.4388557110546188,0.524260960350451,0.7642579749099941,0.7265560926291581,0.9424836945287695,0.3216164363995348,0.7418695100804787,0.3837459644770455,0.882819489417184,-0.1208196636290765,0.2035074966094101,803.8461538461539,809.8901098901099,801.4285714285714,794.981684981685,880.4029304029305,698.2783882783883,-0.388672,0.112427,0.917114,-1.614990,-3.259888,1.712189,1,1,1,1,1,97.000000
2025-03-24 14:47:34.457,0.4641655844157496,0.3713750955652608,0.90567364120067,0.8187419040312287,0.3365578157819296,-0.1162347270161335,0.004948346102851927,0.3126467181331648,0.4484332752894364,0.4388557110546188,0.524260960350451,0.7706344676100991,0.657223855170484,0.991617841702065,0.3122547607016649,0.6535308695239919,0.3867626588799437,0.8938003764853562,-0.01647908868728123,0.2188056343045744,811.9047619047619,806.6666666666667,804.2490842490843,801.4285714285714,814.3223443223443,638.2417582417582,-0.383728,0.093506,0.914429,1.031799,-0.590668,-1.570129,1,1,1,1,1,97.000000
2025-03-24 14:47:34.957,0.4693740572827383,0.1430494051649877,0.8403315032450982,0.7415161808472718,0.289100527078456,-0.3931018052236896,0.07665633034183891,0.2708107681953855,0.5282240574520205,0.1398032357791825,0.5314148408933421,0.7782117216551013,0.5758225452505209,0.9647835970287026,0.2629312864077841,0.5836460186964546,0.3385391995878339,0.8331222692617007,0.06550917664770428,0.227390883999567,802.6373626373627,805.4578754578755,806.6666666666667,793.7728937728938,790.952380952381,566.9230769230769,-0.403992,0.077881,0.891846,-3.715973,-1.966400,14.123688,1,1,1,1,1,97.000000
2025-03-24 14:47:35.459,0.5422943484172973,0.5449888944309378,0.3928040507803088,0.5712825715333658,0.3264341200343897,0.281015801852553,0.09804972827021426,0.4206699906632304,0.7585848154999134,0.3481088375830744,0.4810274278637475,0.7758772175464335,0.5463345143208939,0.8598322928953047,0.1464636964498987,0.3094426715200066,0.2904424183908312,0.7545826615426537,0.1367435561375106,0.2006843122671039,792.967032967033,793.3699633699634,807.8754578754579,802.6373626373627,891.2820512820513,753.8827838827839,-0.265076,0.061157,0.925903,-53.160095,-1.921539,122.814026,1,1,1,1,1,97.000000
2025-03-24 14:47:35.961,0.7935242261119444,0.8655976907805003,0.9180365337362321,0.7950416288374649,0.5126950277287671,0.6542303680436501,0.5616815205797083,0.5843980194372754,0.7621826411945489,0.3443578507258411,0.5169029082103679,0.9770018744535688,0.5365478497908875,0.6841936656425099,0.1372579021002448,0.3718095980112702,0.2642072955690857,0.5621585078324211,0.06731080166924953,0.1910327954828245,813.5164835164835,792.967032967033,792.5641025641025,906.1904761904763,881.6117216117217,670.8791208791209,-0.408142,0.036438,0.898743,-16.718140,1.749573,57.451782,1,1,1,1,1,97.000000
2025-03-24 14:47:36.457,0.8581642974642506,0.9492017159122552,1.131087277282224,0.8626023111421023,0.5946486386285262,0.6999499667294132,0.6783072437796142,0.6651908031359125,0.7598149218131928,0.3482540696810331,0.5377510041371927,0.9770018744535688,0.5155706552305911,0.5755823920486782,0.1657842673425522,0.386486529115959,0.2148771688135575,0.4056920425577391,-0.009511220179574176,0.1579182611247897,823.1868131868132,800.6227106227107,806.6666666666667,811.9047619047619,684.1758241758242,31.83150183150183,-0.282898,0.009338,0.818726,-7.312317,-3.147736,-12.867584,1,1,1,1,1,97.000000
2025-03-24 14:47:36.957,1.015665202273011,0.9284819478771756,1.150215218188485,1.004237943235424,0.7516364804291612,0.6613138141018858,0.5855135897221803,0.6810639413069629,0.765130964446248,0.2264628304819468,0.381550066462405,0.9524239802304163,0.695594875608068,0.6776437234854343,0.0005646482401110275,0.4877271807907184,0.2364862075140693,0.3822312717479487,-0.1296878809500557,0.1340293816878491,801.4285714285714,805.4578754578755,809.8901098901099,815.5311355311355,899.3406593406594,602.3809523809524,-0.461975,-0.043152,0.907349,-8.770294,-3.020630,-3.177643,1,1,1,1,1,97.000000
2025-03-24 14:47:37.457,0.9048308804418774,0.6200054400619723,0.9328297924618355,1.076790298217133,1.033510194863251,0.3236660494820988,0.3267967290967622,0.7402910709869133,0.7827416726598441,0.3087197040760949,0.3026634456076244,0.9289624515238408,0.7868864297960053,0.6858329616752105,0.0303420984458145,0.522443629005353,0.2439455122416758,0.4573436779004623,-0.2144887498165543,0.1790708769720426,822.3809523809524,840.9157509157509,770.4029304029305,789.3406593406594,1621.391941391941,1622.197802197802,-0.215149,0.154846,1.035034,20.837860,-3.409424,-83.164520,1,1,1,1,1,97.000000
2025-03-24 14:47:37.605,,,,,,,,,,,,,,,,,,,,,,,,,,,,,,,,,,,,,,,/muse/elements/blink
2025-03-24 14:47:37.957,1.119962026966813,0.4836861812358947,0.8565864403007931,1.076790298217133,1.097962432392953,0.3548027157108186,0.3220238940190266,0.7402910709869133,0.7868371754325297,0.2544592210893805,0.1141580046227591,0.9289624515238408,0.7175762896840524,0.6887911845192243,0.01667139579957777,0.522443629005353,0.2725112131528528,0.4857192311703814,-0.2714000351309238,0.1790708769720426,848.1684981684982,791.3553113553114,793.3699633699634,767.985347985348,440.8058608058608,0,-0.177551,0.085571,1.210632,61.407013,0.366364,-96.331177,1,1,1,1,1,97.000000
2025-03-24 14:47:38.298,,,,,,,,,,,,,,,,,,,,,,,,,,,,,,,,,,,,,,,/muse/elements/blink
2025-03-24 14:47:38.457,1.202640805044652,0.4663722856340141,0.5594128264877919,1.076790298217133,1.199622392275909,0.4912543850263538,0.3098115320952743,0.7402910709869133,0.6755710103762038,0.1781198608874175,0.01430749767597665,0.9289624515238408,0.6758028434445368,0.4490659981571046,0.05126453015083434,0.522443629005353,0.2524898433389127,0.3066216925586509,-0.335189147704421,0.1790708769720426,781.2820512820513,800.6227106227107,794.5787545787546,785.7142857142858,283.6630036630037,0,-0.370239,0.204468,1.141541,3.297272,0.448608,-20.979919,1,1,1,1,1,97.000000
2025-03-24 14:47:38.651,,,,,,,,,,,,,,,,,,,,,,,,,,,,,,,,,,,,,,,/muse/elements/blink
2025-03-24 14:47:38.956,1.362458627402746,0.4796641944708511,0.8265007373707329,1.076790298217133,1.198571991537756,0.5272275874961279,0.7820903029799001,0.7402910709869133,0.5040065069250331,0.08308486613172704,0.1635075276759554,0.9289624515238408,0.4194961336515013,0.3635369680280554,0.4104102614448364,0.522443629005353,0.3156621002207551,0.233823195603137,-0.007196946843181959,0.1790708769720426,796.996336996337,802.2344322344322,824.7985347985348,880,786.9230769230769,972.2710622710623,-0.345093,0.159851,0.982788,-30.310974,-13.039551,46.670227,1,1,1,1,1,97.000000
2025-03-24 14:47:39.456,1.362458627402746,0.4796641944708511,0.9028198060538347,1.076790298217133,1.198571991537756,0.5272275874961279,0.898136061970449,0.7402910709869133,0.5040065069250331,0.08308486613172704,0.2646544245328174,0.9289624515238408,0.4194961336515013,0.3635369680280554,0.453591036988849,0.522443629005353,0.3156621002207551,0.233823195603137,0.04416860481685744,0.1790708769720426,762.3443223443223,808.6813186813187,776.0439560439561,755.0915750915751,43.51648351648352,0,-0.209839,0.094666,0.821899,-25.473480,14.908752,64.502411,1,1,1,1,1,97.000000
2025-03-24 14:47:39.843,,,,,,,,,,,,,,,,,,,,,,,,,,,,,,,,,,,,,,,/muse/elements/blink
2025-03-24 14:47:39.957,1.362458627402746,0.4796641944708511,0.9028198060538347,1.076790298217133,1.198571991537756,0.5272275874961279,0.898136061970449,0.7402910709869133,0.5040065069250331,0.08308486613172704,0.2646544245328174,0.9289624515238408,0.4194961336515013,0.3635369680280554,0.453591036988849,0.522443629005353,0.3156621002207551,0.233823195603137,0.04416860481685744,0.1790708769720426,809.0842490842491,804.6520146520147,805.4578754578755,817.5457875457876,612.0512820512821,189.3772893772894,-0.302856,0.135803,0.758179,-7.910461,-2.886047,-5.428162,1,1,1,1,1,97.000000
2025-03-24 14:47:40.457,1.362458627402746,0.4796641944708511,0.9028198060538347,1.076790298217133,1.198571991537756,0.5272275874961279,0.898136061970449,0.7402910709869133,0.5040065069250331,0.08308486613172704,0.2646544245328174,0.9289624515238408,0.4194961336515013,0.3635369680280554,0.453591036988849,0.522443629005353,0.3156621002207551,0.233823195603137,0.04416860481685744,0.1790708769720426,815.1282051282052,813.1135531135532,809.4871794871796,814.3223443223443,1523.076923076923,1622.197802197802,-0.409180,0.052429,0.864197,-2.512207,10.721741,12.934875,1,1,1,1,1,97.000000
2025-03-24 14:47:40.559,,,,,,,,,,,,,,,,,,,,,,,,,,,,,,,,,,,,,,,/muse/elements/blink
2025-03-24 14:47:40.957,1.362458627402746,0.8712045531911543,0.70460885955866,1.076790298217133,1.198571991537756,0.6924527122972045,0.3894707357132902,0.7402910709869133,0.5040065069250331,0.1542806198426659,0.1131630674402337,0.9289624515238408,0.4194961336515013,-0.03723015119175994,-0.1483892080247223,0.522443629005353,0.3156621002207551,0.1413771740512276,-0.294596366329159,0.1790708769720426,825.2014652014652,824.3956043956044,813.1135531135532,893.2967032967033,1267.619047619048,1619.377289377289,-0.347473,0.369080,1.014771,-15.043335,-14.123688,16.740570,1,2,1,1,2,97.000000
2025-03-24 14:47:41.465,0.9345984815372635,0.9335490881967261,0.8231523382887496,1.076790298217133,1.069583830665293,0.6048807549074122,0.5683364386849875,0.7402910709869133,0.8627364341366213,0.2351218658883062,0.32098377061632,0.9289624515238408,0.6312882890418139,0.112127023942775,-0.02775734723078014,0.522443629005353,-0.1123795936646603,0.2379475281223584,-0.2577903815046301,0.1790708769720426,778.0586080586081,806.2637362637363,781.2820512820513,757.5091575091575,545.9706959706959,0,-0.470093,0.013855,1.030945,-19.693909,7.813263,58.304138,1,1,1,1,1,97.000000
2025-03-24 14:47:41.961,0.9057836488446708,0.999338575056267,1.04348008895577,1.076790298217133,1.092120607731734,0.692561247284854,0.8397771376457913,0.7402910709869133,0.8779492211591017,0.235772760974671,0.604873556161323,0.9289624515238408,0.6096097400029518,0.1526112524581107,-0.02300193568829195,0.522443629005353,-0.05023133840747779,0.2090465571571795,-0.188297016727558,0.1790708769720426,798.6080586080586,802.6373626373627,795.3846153846154,813.1135531135532,1013.369963369963,990,-0.457153,-0.022766,0.980591,-10.071259,6.243134,44.030914,1,1,1,1,1,97.000000
2025-03-24 14:47:42.459,0.9057836488446708,1.364723809061411,1.229456621307153,1.076790298217133,1.092120607731734,0.8221120752300072,1.04948161878962,0.7402910709869133,0.8779492211591017,0.7154129021834371,0.6063833262761675,0.9289624515238408,0.6096097400029518,0.317333334075847,0.05560195407270204,0.522443629005353,-0.05023133840747779,0.2475730523063928,-0.1390925100597563,0.1790708769720426,900.1465201465202,806.6666666666667,785.3113553113553,782.0879120879121,607.2161172161173,0,-0.386719,0.127930,0.785767,-25.466003,11.364746,56.569519,1,1,1,1,1,97.000000
2025-03-24 14:47:42.957,0.9283473511736244,1.495001823466552,1.33146220707159,1.076790298217133,1.147500615883762,0.9428033905848116,1.164765882386263,0.7402910709869133,0.7326649524663972,0.7197824592137555,0.5861259237675575,0.9289624515238408,0.5920294143249735,0.4801023735762571,0.0620742412104351,0.522443629005353,0.02254362362890563,0.1684431775276744,-0.09976472525565769,0.1790708769720426,859.8534798534798,832.4542124542124,791.3553113553114,778.0586080586081,724.8717948717949,127.3260073260073,-0.316101,-0.016052,0.937927,-14.033966,-7.073059,28.262329,1,1,1,1,1,97.000000
2025-03-24 14:47:43.465,0.9283473511736244,1.532857281724722,1.260623118114384,1.076790298217133,1.147500615883762,0.9709935172365143,1.081113981369929,0.7402910709869133,0.7326649524663972,0.7197824592137555,0.5448244324879139,0.9289624515238408,0.5920294143249735,0.7267607093767877,0.06924268368100717,0.522443629005353,0.02254362362890563,0.4218806178403401,-0.2425839403091307,0.1790708769720426,790.1465201465202,843.7362637362637,804.2490842490843,839.3040293040293,884.0293040293041,1122.564102564103,-0.408142,0.151978,0.854797,-4.403839,3.215027,10.385284,1,1,1,1,1,97.000000
2025-03-24 14:47:43.957,0.9283473511736244,1.191843230845487,0.8589588917958498,1.076790298217133,1.147500615883762,0.8527732834039204,0.4272034314329561,0.7402910709869133,0.7326649524663972,0.5798766016056147,0.5029988065694631,0.9289624515238408,0.5920294143249735,0.9302367236193519,-0.1430550136612721,0.522443629005353,0.02254362362890563,0.672514069998432,-0.3514509021493193,0.1790708769720426,881.6117216117217,807.0695970695971,798.6080586080586,792.1611721611722,306.2271062271062,0,-0.407715,0.139404,0.869568,9.390869,-12.598419,-10.684357,1,1,1,1,1,97.000000
2025-03-24 14:47:44.457,0.9283473511736244,1.066264064563889,0.7930504436561183,1.076790298217133,1.147500615883762,0.8442198310913874,0.3284863009120746,0.7402910709869133,0.7326649524663972,0.458509307381044,0.6524614328189967,0.9289624515238408,0.5920294143249735,0.9754294010192602,-0.1032153728401244,0.522443629005353,0.02254362362890563,0.748424706025572,-0.1823307997869941,0.1790708769720426,713.992673992674,773.2234432234433,814.7252747252747,711.5750915750916,951.3186813186813,981.941391941392,-0.380371,0.134216,0.888123,-3.177643,31.484833,32.673645,1,2,1,1,2,97.000000
2025-03-24 14:47:44.568,,,,,,,,,,,,,,,,,,,,,,,,,,,,,,,,,,,,,,,/muse/elements/blink
2025-03-24 14:47:44.958,0.9283473511736244,1.066264064563889,0.7505544774880701,1.076790298217133,1.147500615883762,0.8442198310913874,0.2538724146842962,0.7402910709869133,0.7326649524663972,0.458509307381044,0.5256814843937546,0.9289624515238408,0.5920294143249735,0.9754294010192602,-0.1189833309323117,0.522443629005353,0.02254362362890563,0.748424706025572,-0.1386216475172628,0.1790708769720426,778.0586080586081,788.1318681318681,813.1135531135532,790.952380952381,910.2197802197802,903.7728937728938,-0.500793,0.073547,0.831604,-14.826508,-17.278900,13.592834,1,2,1,1,2,97.000000
2025-03-24 14:47:45.457,0.9283473511736244,1.066264064563889,0.8790126606815392,1.076790298217133,1.147500615883762,0.8442198310913874,0.2649120697901912,0.7402910709869133,0.7326649524663972,0.458509307381044,0.5341949222846618,0.9289624515238408,0.5920294143249735,0.9754294010192602,-0.04631584009455902,0.522443629005353,0.02254362362890563,0.748424706025572,-0.1195747165472284,0.1790708769720426,776.4468864468864,801.025641025641,798.6080586080586,816.3369963369963,955.7509157509157,815.5311355311355,-0.430725,0.154053,0.910156,-2.915955,-1.465454,-1.293488,1,2,1,1,2,97.000000
2025-03-24 14:47:45.467,,,,,,,,,,,,,,,,,,,,,,,,,,,,,,,,,,,,,,,/muse/elements/blink
2025-03-24 14:47:45.960,0.9283473511736244,1.066264064563889,0.8424388188923141,1.076790298217133,1.147500615883762,0.8442198310913874,0.4997765447684399,0.7402910709869133,0.7326649524663972,0.458509307381044,0.5359202944252639,0.9289624515238408,0.5920294143249735,0.9754294010192602,-0.07201447012713443,0.522443629005353,0.02254362362890563,0.748424706025572,-0.2430047480344618,0.1790708769720426,802.2344322344322,800.6227106227107,807.8754578754579,790.5494505494506,1085.897435897436,1029.487179487179,-0.479736,0.124878,0.872437,6.489868,-3.970184,-19.447174,1,2,1,1,2,97.000000
2025-03-24 14:47:46.457,0.9283473511736244,0.5547810725514357,0.8319154943907513,1.076790298217133,1.147500615883762,-0.09623218023886622,0.4443709279010786,0.7402910709869133,0.7326649524663972,0.2339922355355089,0.4400172457271766,0.9289624515238408,0.5920294143249735,0.5754574344485849,-0.1198196684037311,0.522443629005353,0.02254362362890563,0.3620893608319218,-0.2998498556308078,0.1790708769720426,933.992673992674,796.5934065934066,807.8754578754579,790.1465201465202,696.2637362637363,603.992673992674,-0.414551,0.073059,0.901123,35.283051,-15.663910,-57.563934,1,2,1,1,2,97.000000
2025-03-24 14:47:46.963,0.9283473511736244,0.6442577050429714,0.8020737548640388,1.076790298217133,1.147500615883762,-0.04413680856478851,0.4478759254959084,0.7402910709869133,0.7326649524663972,0.2489014807406539,0.437962044994523,0.9289624515238408,0.5920294143249735,0.5682090823472151,-0.1803189004974386,0.522443629005353,0.02254362362890563,0.3492270345751423,-0.3562701916587449,0.1790708769720426,707.948717948718,858.2417582417582,807.0695970695971,660.8058608058608,909.4139194139194,770.8058608058608,-0.439331,0.105042,0.886230,-3.925323,-2.751465,9.966583,1,2,1,1,2,97.000000
2025-03-24 14:47:47.162,,,,,,,,,,,,,,,,,,,,,,,,,,,,,,,,,,,,,,,/muse/elements/blink
2025-03-24 14:47:47.457,0.9283473511736244,0.6442577050429714,0.8997373188081365,1.076790298217133,1.147500615883762,-0.04413680856478851,0.2467510352897248,0.7402910709869133,0.7326649524663972,0.2489014807406539,0.6180000581097941,0.9289624515238408,0.5920294143249735,0.5682090823472151,0.04663834231225446,0.522443629005353,0.02254362362890563,0.3492270345751423,-0.2379631295732675,0.1790708769720426,544.3589743589744,774.8351648351648,843.3333333333334,836.0805860805862,805.8608058608058,706.7399267399268,-0.380127,0.078369,0.914307,-42.273865,0.672913,83.104706,1,2,1,1,2,97.000000
2025-03-24 14:47:47.957,0.9283473511736244,0.6442577050429714,0.8997373188081365,1.076790298217133,1.147500615883762,-0.04413680856478851,0.2467510352897248,0.7402910709869133,0.7326649524663972,0.2489014807406539,0.6180000581097941,0.9289624515238408,0.5920294143249735,0.5682090823472151,0.04663834231225446,0.522443629005353,0.02254362362890563,0.3492270345751423,-0.2379631295732675,0.1790708769720426,544.3589743589744,774.8351648351648,843.3333333333334,836.0805860805862,805.8608058608058,706.7399267399268,-0.380127,0.078369,0.914307,-42.273865,0.672913,83.104706,1,2,1,1,2,97.000000
2025-03-24 14:47:48.457,0.9283473511736244,0.6442577050429714,0.8997373188081365,1.076790298217133,1.147500615883762,-0.04413680856478851,0.2467510352897248,0.7402910709869133,0.7326649524663972,0.2489014807406539,0.6180000581097941,0.9289624515238408,0.5920294143249735,0.5682090823472151,0.04663834231225446,0.522443629005353,0.02254362362890563,0.3492270345751423,-0.2379631295732675,0.1790708769720426,544.3589743589744,774.8351648351648,843.3333333333334,836.0805860805862,805.8608058608058,706.7399267399268,-0.380127,0.078369,0.914307,-42.273865,0.672913,83.104706,1,2,1,1,2,97.000000
2025-03-24 14:47:48.956,0.9283473511736244,0.6442577050429714,0.8997373188081365,1.076790298217133,1.147500615883762,-0.04413680856478851,0.2467510352897248,0.7402910709869133,0.7326649524663972,0.2489014807406539,0.6180000581097941,0.9289624515238408,0.5920294143249735,0.5682090823472151,0.04663834231225446,0.522443629005353,0.02254362362890563,0.3492270345751423,-0.2379631295732675,0.1790708769720426,544.3589743589744,774.8351648351648,843.3333333333334,836.0805860805862,805.8608058608058,706.7399267399268,-0.380127,0.078369,0.914307,-42.273865,0.672913,83.104706,1,2,1,1,2,97.000000
2025-03-24 14:47:49.363,,,,,,,,,,,,,,,,,,,,,,,,,,,,,,,,,,,,,,,/muse/event/disconnected MuseS-9CF6
2025-03-24 14:47:58.873,,,,,,,,,,,,,,,,,,,,,,,,,,,,,,,,,,,,,,,/muse/event/connected MuseS-9CF6
2025-03-24 14:47:58.957,0.9283473511736244,0.6442577050429714,0.8997373188081365,1.076790298217133,1.147500615883762,-0.04413680856478851,0.2467510352897248,0.7402910709869133,0.7326649524663972,0.2489014807406539,0.6180000581097941,0.9289624515238408,0.5920294143249735,0.5682090823472151,0.04663834231225446,0.522443629005353,0.02254362362890563,0.3492270345751423,-0.2379631295732675,0.1790708769720426,544.3589743589744,774.8351648351648,843.3333333333334,836.0805860805862,805.8608058608058,706.7399267399268,-0.380127,0.078369,0.914307,-42.273865,0.672913,83.104706,1,2,1,1,2,97.000000
2025-03-24 14:47:59.457,0.9283473511736244,0.6442577050429714,0.8997373188081365,1.076790298217133,1.147500615883762,-0.04413680856478851,0.2467510352897248,0.7402910709869133,0.7326649524663972,0.2489014807406539,0.6180000581097941,0.9289624515238408,0.5920294143249735,0.5682090823472151,0.04663834231225446,0.522443629005353,0.02254362362890563,0.3492270345751423,-0.2379631295732675,0.1790708769720426,801.025641025641,807.4725274725275,801.8315018315019,804.2490842490843,886.8498168498169,795.3846153846154,-0.515259,0.027832,0.862427,7.559052,1.398163,-8.620758,1,2,1,1,2,97.000000
2025-03-24 14:47:59.969,0,0,0,0,0,0,0,0,0,0,0,0,0,0,0,0,0,0,0,0,793.3699633699634,796.5934065934066,800.2197802197802,801.8315018315019,858.6446886446887,746.2271062271062,-0.474243,0.090637,0.872620,5.585175,-2.153320,-5.772095,0,4,4,4,4,97.000000
2025-03-24 14:48:00.467,0,0,0,0,0,0,0,0,0,0,0,0,0,0,0,0,0,0,0,0,789.3406593406594,819.1575091575091,790.1465201465202,771.2087912087912,904.5787545787546,733.7362637362637,-0.385620,0.177002,0.920776,64.808960,-25.047302,-104.727631,0,4,4,4,4,97.000000
2025-03-24 14:48:00.956,0,0,0,0,0,0,0,0,0,0,0,0,0,0,0,0,0,0,0,0,767.5824175824176,785.7142857142858,817.5457875457876,767.985347985348,851.7948717948718,670.4761904761905,-0.305237,0.064392,0.971069,19.873352,-12.284393,-56.270447,0,4,4,4,4,97.000000
2025-03-24 14:48:01.457,0,0,0,0,0,0,0,0,0,0,0,0,0,0,0,0,0,0,0,0,813.5164835164835,813.1135531135532,796.1904761904763,743.4065934065934,914.2490842490843,744.2124542124542,-0.348572,0.100098,0.906128,53.646088,-0.687866,-88.884277,0,4,4,4,4,97.000000
2025-03-24 14:48:01.971,0,0,0,0,0,0,0,0,0,0,0,0,0,0,0,0,0,0,0,0,807.0695970695971,786.1172161172161,801.4285714285714,798.6080586080586,767.5824175824176,585.4578754578755,-0.418884,0.142212,0.897095,0.814972,1.981354,1.592560,1,2,1,1,2,97.000000
2025-03-24 14:48:02.457,0,0,0,0,0,0,0,0,0,0,0,0,0,0,0,0,0,0,0,0,859.8534798534798,801.025641025641,809.8901098901099,860.6593406593407,878.3882783882784,695.0549450549451,-0.409607,0.158691,0.888428,-1.450500,-2.108459,2.639313,1,2,1,1,2,97.000000
2025-03-24 14:48:02.481,,,,,,,,,,,,,,,,,,,,,,,,,,,,,,,,,,,,,,,/muse/elements/blink
2025-03-24 14:48:02.957,0,0,0.9449052369497198,0,0,0,0.7621195459139283,0,0,0,0.5763062383114145,0,0,0,0.2569732139693656,0,0,0,0.2367076940753178,0,801.8315018315019,792.1611721611722,795.3846153846154,787.3260073260074,801.025641025641,651.1355311355312,-0.405151,0.153748,0.892578,1.772003,-0.889740,-2.639313,1,2,1,1,2,97.000000
2025-03-24 14:48:03.457,0,0,0.6853772444790778,0,0,0,0.4985717458964583,0,0,0,0.5763062383114145,0,0,0,0.1482418811154284,0,0,0,0.1202345690003203,0,826.4102564102565,828.8278388278388,784.5054945054945,815.1282051282052,829.2307692307693,704.3223443223443,-0.391418,0.165466,0.915649,9.562836,-4.538422,-7.768402,1,2,1,1,2,97.000000
2025-03-24 14:48:03.957,0,0,0.9974133177404093,0,0,0,0.5012241878027585,0,0,0,0.6150463204075576,0,0,0,0.1020571215252791,0,0,0,0.07376867519106566,0,809.4871794871796,788.1318681318681,800.6227106227107,796.1904761904763,800.6227106227107,600.3663003663004,-0.422729,0.181335,0.890442,-4.067383,1.226196,-1.570129,1,2,1,1,2,97.000000
2025-03-24 14:48:04.327,,,,,,,,,,,,,,,,,,,,,,,,,,,,,,,,,,,,,,,/muse/elements/blink
2025-03-24 14:48:04.457,0,0,0.9490687650151499,0.9226542811250308,0,0,0.2217292893615752,0.1271229284357573,0,0,0.5262051387020428,0.6269921114800959,0,0,-0.04268453599481718,0.4301784126862091,0,0,-0.146570638730968,0.2941765908535771,835.2747252747253,807.8754578754579,808.6813186813187,832.0512820512821,837.2893772893773,854.2124542124542,-0.413940,0.133362,0.899658,-1.472931,-2.048645,-1.951447,1,1,1,1,1,97.000000
2025-03-24 14:48:04.957,0,0,1.063027869159497,0.9226542811250308,0,0,0.4151186830931275,0.1271229284357573,0,0,0.5587582907651707,0.6269921114800959,0,0,0.08192728477415412,0.4301784126862091,0,0,-0.165053622948702,0.2941765908535771,792.1611721611722,786.1172161172161,799.8168498168499,785.3113553113553,805.4578754578755,666.4468864468864,-0.391907,0.118958,0.908569,-1.001892,-3.327179,-3.566437,1,1,1,1,1,97.000000
2025-03-24 14:48:05.466,0,0,0.9122432320338528,0.9226542811250308,0,0,0.4347124031391205,0.1271229284357573,0,0,0.3551771634274423,0.6269921114800959,0,0,0.09728958972333034,0.4301784126862091,0,0,-0.2990930159749455,0.2941765908535771,803.8461538461539,806.2637362637363,808.6813186813187,803.040293040293,769.5970695970697,574.5787545787546,-0.359741,0.065491,0.927734,-1.854248,0.530853,1.428070,1,1,1,1,1,97.000000
2025-03-24 14:48:05.826,,,,,,,,,,,,,,,,,,,,,,,,,,,,,,,,,,,,,,,/muse/elements/blink
2025-03-24 14:48:05.958,0,0,0.8124460616361054,0.9226542811250308,0,0,0.3833563258731925,0.1271229284357573,0,0,0.354337150009489,0.6269921114800959,0,0,0.1456732369118075,0.4301784126862091,0,0,-0.2594400689136855,0.2941765908535771,810.6959706959707,809.8901098901099,804.6520146520147,805.4578754578755,780.0732600732601,634.2124542124542,-0.398193,0.070312,0.900940,-0.314026,-0.194397,2.736511,1,1,1,1,1,97.000000
2025-03-24 14:48:06.464,0,0,0.6194829313883481,0.9226542811250308,0,0,0.2045732061199016,0.1271229284357573,0,0,0.110214256341898,0.6269921114800959,0,0,0.1505904631199778,0.4301784126862091,0,0,-0.1595009155979606,0.2941765908535771,794.981684981685,798.6080586080586,811.5018315018315,797.8021978021978,814.7252747252747,728.0952380952381,-0.395813,0.069580,0.918762,-4.650574,2.624359,4.351501,1,1,1,1,1,97.000000
2025-03-24 14:48:06.956,0,0,0.02451536230296185,0.9226542811250308,0,0,-0.1606922522266993,0.1271229284357573,0,0,0.06425392880819657,0.6269921114800959,0,0,0.2659228473780194,0.4301784126862091,0,0,-0.06137959252030271,0.2941765908535771,791.7582417582418,793.3699633699634,805.4578754578755,799.0109890109891,859.4505494505495,914.2490842490843,-0.389282,0.044922,0.912109,0.463562,-0.927124,0.598145,1,2,1,1,2,97.000000
2025-03-24 14:48:07.460,0.3578839297626843,0.1825165557512024,0.154955960089772,-0.03036448647478156,0.09531175402252616,-0.4062314811747017,-0.05333786021335226,0.1936752359300016,1.008989570064853,-0.01525376552294166,0.1849000464055518,0.1488584929124181,0.6572088460846338,0.5695412333949968,0.3023812233633783,0.5183470470669911,0.5496628990188517,0.4029674484750305,0.01790283976103082,0.3055718729316185,796.5934065934066,801.8315018315019,803.040293040293,791.7582417582418,855.0183150183151,679.7435897435897,-0.402954,0.055420,0.897339,-1.226196,-0.336456,-1.562653,1,1,1,1,1,97.000000
2025-03-24 14:48:07.957,0.2131521107935412,0.07126120893871274,-0.02280014328599806,0.1169551393599546,-0.0430423310345739,-0.4679894208954263,-0.1378211562388841,0.1555992750545505,1.031718837088804,0.1257813850616242,0.1840559977986154,0.2310978258927427,0.6827613462131348,0.5013726203958899,0.2413690216999591,0.5146096803795456,0.5627607934915101,0.4628797093313698,-0.08859088153587737,0.1498883761562679,799.4139194139194,802.2344322344322,800.2197802197802,801.4285714285714,803.8461538461539,619.3040293040293,-0.410217,0.031189,0.899475,-1.689758,-2.945862,9.734802,1,1,1,1,1,97.000000
2025-03-24 14:48:08.457,0.1171253990427178,-0.06562153341575777,-0.006220575458423945,0.3432900983591078,-0.04282287660075212,-0.4964911882214095,-0.1593382583866606,0.1716163379040992,1.048317256308065,0.1477876136301465,0.1786193063095587,0.3657159453009752,0.6738017307219658,0.4323670891752232,0.08551078202855787,0.4404977815987327,0.5198910963490325,0.4014010527887722,-0.1845368230403848,0.07363554218919403,858.6446886446887,802.2344322344322,808.2783882783883,846.1538461538462,875.5677655677656,652.3443223443223,-0.438171,0.077087,0.861877,-5.704803,39.604645,8.261871,1,1,1,1,1,97.000000
2025-03-24 14:48:08.582,,,,,,,,,,,,,,,,,,,,,,,,,,,,,,,,,,,,,,,/muse/elements/blink
2025-03-24 14:48:08.970,-0.1288319413992489,-0.2462143114897533,0.3075367411082115,0.4765490345507737,-0.1444390996734394,-0.5499593346974784,0.008565799971116851,0.1588964140371667,1.032490927238699,0.08993719851582341,0.5900954342947174,0.3574847422075337,0.6828862284971183,0.3457622794088955,0.06432652967002206,0.4000717580702972,0.492162277622696,0.407342245828539,0.3383688113093581,-0.2283216207879885,732.5274725274726,802.2344322344322,840.5128205128206,745.4212454212454,859.4505494505495,671.6849816849817,-0.494263,-0.014160,0.766846,-7.259979,-34.894257,56.502228,1,1,1,1,1,97.000000
2025-03-24 14:48:09.463,-0.301551528613083,-0.3979664146832648,0.4858562314023482,0.6476545985391949,-0.04227472518361992,-0.5610881158851789,0.1501480850415506,0.2092508122844212,0.6247942800595079,-0.07312024045583387,0.5868544431278796,0.2702016300694299,0.6505590397936583,0.3217107309138435,0.1100060704901068,0.1687007347332608,0.3894932621966418,0.2759964002395034,0.5160357349998005,-0.2102269156799642,767.1794871794872,796.1904761904763,814.3223443223443,810.6959706959707,813.919413919414,909.4139194139194,-0.168884,0.139709,1.038452,-46.146851,11.932983,114.761505,1,1,1,1,1,97.000000
2025-03-24 14:48:09.957,-0.301551528613083,-0.3316652829134805,0.6949260212202822,0.6476545985391949,-0.04227472518361992,-0.5815663568256785,0.3015572734192352,0.2092508122844212,0.6247942800595079,-0.1247693794602572,0.5868544431278796,0.2702016300694299,0.6505590397936583,0.3408889636311925,0.2482352959521993,0.1687007347332608,0.3894932621966418,0.2783328280618022,0.7516932894240442,-0.2102269156799642,801.025641025641,817.1428571428571,783.2967032967033,830.4395604395604,792.967032967033,573.7728937728938,-0.361328,0.103271,0.907654,-15.065765,6.415100,35.836334,1,1,1,1,1,97.000000
2025-03-24 14:48:10.459,-0.301551528613083,-0.3316652829134805,0.7650310710871862,0.6476545985391949,-0.04227472518361992,-0.5815663568256785,0.3548873490297461,0.2092508122844212,0.6247942800595079,-0.1247693794602572,0.5868544431278796,0.2702016300694299,0.6505590397936583,0.3408889636311925,0.2946263370917824,0.1687007347332608,0.3894932621966418,0.2783328280618022,0.8401064166581125,-0.2102269156799642,875.1648351648352,824.3956043956044,786.9230769230769,877.5824175824176,1623.003663003663,1622.197802197802,-0.196472,0.207764,0.990845,71.014709,-35.701752,-181.918182,1,1,1,1,1,97.000000
2025-03-24 14:48:10.495,,,,,,,,,,,,,,,,,,,,,,,,,,,,,,,,,,,,,,,/muse/elements/blink
2025-03-24 14:48:10.957,-0.301551528613083,-0.3316652829134805,0.7650310710871862,0.6476545985391949,-0.04227472518361992,-0.5815663568256785,0.3548873490297461,0.2092508122844212,0.6247942800595079,-0.1247693794602572,0.5868544431278796,0.2702016300694299,0.6505590397936583,0.3408889636311925,0.2946263370917824,0.1687007347332608,0.3894932621966418,0.2783328280618022,0.8401064166581125,-0.2102269156799642,901.7582417582418,829.2307692307693,810.6959706959707,769.1941391941392,708.7545787545788,300.1831501831502,-0.298828,0.005554,1.248047,7.065582,-2.669220,-70.969849,1,1,1,1,1,97.000000
2025-03-24 14:48:11.207,,,,,,,,,,,,,,,,,,,,,,,,,,,,,,,,,,,,,,,/muse/elements/jaw_clench
2025-03-24 14:48:11.457,-0.301551528613083,-0.3316652829134805,0.7650310710871862,0.6476545985391949,-0.04227472518361992,-0.5815663568256785,0.3548873490297461,0.2092508122844212,0.6247942800595079,-0.1247693794602572,0.5868544431278796,0.2702016300694299,0.6505590397936583,0.3408889636311925,0.2946263370917824,0.1687007347332608,0.3894932621966418,0.2783328280618022,0.8401064166581125,-0.2102269156799642,827.2161172161173,826.4102564102565,805.4578754578755,871.941391941392,1447.326007326007,1622.197802197802,-0.457458,0.180725,0.854370,-1.308441,0.568237,7.499237,1,2,1,1,2,97.000000
2025-03-24 14:48:11.957,-0.301551528613083,-0.3316652829134805,0.7650310710871862,0.6476545985391949,-0.04227472518361992,-0.5815663568256785,0.3548873490297461,0.2092508122844212,0.6247942800595079,-0.1247693794602572,0.5868544431278796,0.2702016300694299,0.6505590397936583,0.3408889636311925,0.2946263370917824,0.1687007347332608,0.3894932621966418,0.2783328280618022,0.8401064166581125,-0.2102269156799642,835.2747252747253,812.7106227106227,806.6666666666667,818.3516483516484,0,0,-0.334717,0.020996,0.786438,1.734619,11.192780,-5.981445,1,2,1,1,2,97.000000
2025-03-24 14:48:12.353,,,,,,,,,,,,,,,,,,,,,,,,,,,,,,,,,,,,,,,/muse/elements/blink
