TimeStamp,Delta_TP9,Delta_AF7,Delta_AF8,Delta_TP10,Theta_TP9,Theta_AF7,Theta_AF8,Theta_TP10,Alpha_TP9,Alpha_AF7,Alpha_AF8,Alpha_TP10,Beta_TP9,Beta_AF7,Beta_AF8,Beta_TP10,Gamma_TP9,Gamma_AF7,Gamma_AF8,Gamma_TP10,RAW_TP9,RAW_AF7,RAW_AF8,RAW_TP10,AUX_RIGHT,AUX_LEFT,Accelerometer_X,Accelerometer_Y,Accelerometer_Z,Gyro_X,Gyro_Y,Gyro_Z,HeadBandOn,HSI_TP9,HSI_AF7,HSI_AF8,HSI_TP10,Battery,Elements
2025-03-24 14:43:46.524,,,,,,,,,,,,,,,,,,,,,,,,,,,,,,,,,,,,,,,/muse/event/connected MuseS-9CF6
2025-03-24 14:43:47.033,0.8146547843920509,-0.1732241369667988,-0.1647456208442275,0.5619778252008064,0.3890928455416726,-0.2386970780719539,-0.4284931665393129,0.167677758070836,0.5997155581702162,0.0734103897159933,-0.3667405668845854,0.08754586083032731,0.5529531320275661,-0.1741013497908183,-0.2623344603012486,0.4280571911276136,0.3378589978424155,-0.380901104622728,-0.6181066323358423,0.08168425494770858,803.4432234432235,808.6813186813187,799.0109890109891,795.7875457875458,924.3223443223443,743.0036630036631,-0.193237,0.073425,0.977051,0.957031,-0.807495,-0.687866,1,1,1,1,1,97.000000
2025-03-24 14:43:47.526,0.9881745999275933,-0.1470884986617577,-0.03121053950075356,0.416274373719499,0.3713298178468952,-0.2324813835256136,-0.33038784239741,0.1109895549903584,0.5656118019531576,0.05159683307980871,-0.3502932199919364,-0.02730802900194912,0.5863791910794369,-0.09646938080823632,-0.2649734025305882,0.3575991476851145,0.2607815927506441,-0.3210647703349017,-0.591409077960911,0.06598820065688603,791.3553113553114,807.4725274725275,803.4432234432235,803.4432234432235,853.4065934065934,654.3589743589744,-0.211792,0.057007,0.955505,0.336456,-0.635529,-2.340240,1,1,1,1,1,97.000000
2025-03-24 14:43:48.096,1.010469700740867,-0.1455211428254532,-0.1446359483689646,0.1250920866479409,0.3038743193322577,-0.2543102279117347,-0.2566545930027203,-0.08445663660013528,0.5850030064151306,0.09140565755610967,-0.213461536673394,0.4104777864414679,0.5964289424660673,0.05720831362132122,-0.2319861691373327,0.3256068796543424,0.3194811306139618,-0.3791710171289721,-0.6022159410097506,0.1892949240531642,807.8754578754579,801.025641025641,808.6813186813187,811.0989010989011,847.7655677655678,796.1904761904763,-0.199951,0.073669,0.979980,-0.515900,-0.620575,1.973877,1,1,1,1,1,97.000000
2025-03-24 14:43:48.616,0.9735636186780358,-0.2633997305679565,-0.1261683116768962,0.1921547703535262,0.2802085655182969,-0.3246665670650261,-0.1766786553116967,-0.05613027211150766,0.6100945850343346,-0.004629744981347941,-0.190272016370571,0.4189931903790135,0.5978041285449082,0.06810646653879829,-0.2050381070906916,0.3750515247585499,0.1730308754069447,-0.4794496823726739,-0.599513767796686,0.1877950134464752,805.8608058608058,805.8608058608058,804.2490842490843,789.7435897435897,888.0586080586081,887.6556776556777,-0.210266,0.069397,0.989380,0.321503,-2.362671,0.575714,1,1,1,1,1,97.000000
2025-03-24 14:43:49.108,0.6378383391191125,-0.4419849344766651,-0.2081226454401514,0.3358284963890735,0.02720946139036142,-0.3368588162484425,-0.2232979928878033,0.07813487783389347,0.6519157637784155,-0.05716675700711117,-0.1730763269621189,0.4189931903790135,0.4986636145592194,-0.02304130047316474,-0.1793250571320899,0.3933151459669775,0.2028267425286803,-0.4944635826838067,-0.5824632009679421,0.2018830763638077,792.967032967033,802.6373626373627,806.6666666666667,809.8901098901099,829.2307692307693,651.1355311355312,-0.204041,0.062073,0.967896,0.687866,-1.869202,0.351410,1,1,1,1,1,97.000000
2025-03-24 14:43:49.624,0.5618352510028636,-0.6347351642306377,-0.1641492866302229,0.3649100872997985,0.1171079956792699,-0.3931613542715401,-0.2136172429462112,0.1240384253515572,0.7003558776660928,-0.0462403491207414,-0.2224162042112838,0.4007998665323481,0.486536507075725,-0.1819999685004199,-0.2149475403987158,0.4429717747237727,0.1656511767072223,-0.460471667312281,-0.5918393250920178,0.0626607152385056,796.996336996337,800.6227106227107,800.2197802197802,794.981684981685,838.0952380952381,699.0842490842491,-0.197205,0.071655,0.985168,0.381317,-0.710297,-0.478516,1,1,1,1,1,97.000000
2025-03-24 14:43:50.088,,,,,,,,,,,,,,,,,,,,,,,,,,,,,,,,,,,,,,,/muse/elements/blink
2025-03-24 14:43:50.104,0.5553983857926945,-0.05825693495629072,0.1984535020397005,0.4736637693725867,0.2039510668305098,-0.08386349426982058,-0.2844575612412188,0.2016565063387562,0.6550608480077962,0.1949509606056249,-0.3150648016015458,0.2029580264096315,0.4735428800658277,-0.2987682749264032,-0.2637257709983918,0.4790937606153564,0.1220856833479075,-0.4923448773038495,-0.6634399709175324,0.02630615538371995,767.985347985348,815.5311355311355,780.4761904761905,753.8827838827839,892.893772893773,736.959706959707,-0.247131,0.058411,0.953735,0.575714,3.499146,-3.790741,1,1,1,1,1,97.000000
2025-03-24 14:43:50.605,0.2490831233111897,0.5186757460972936,0.8929397865303178,0.4979907557077848,0.2548392533996937,0.01823776831252115,0.05153509844038024,0.1363479422781382,0.4897934868631728,0.3073051692974219,-0.1304169283119511,0.08250771206986945,0.4631323419475381,-0.2171927788587156,-0.1575346134701253,0.5284824313226357,0.04431099333852615,-0.5158262844510794,-0.6091775868735171,-0.09644972190474933,814.7252747252747,800.6227106227107,800.6227106227107,796.1904761904763,868.7179487179487,747.032967032967,-0.296936,0.082642,0.925476,9.832001,3.297272,-11.783447,1,1,1,1,1,97.000000
2025-03-24 14:43:51.086,0.2503512024823304,0.8516768352818781,0.9438355559811299,0.5727170411583727,0.1783917992169982,0.1857544290632401,0.03299054698282177,0.1727592218248523,0.3802810414913646,0.3157055764404009,-0.1325895094387349,0.004076867669303612,0.4616159906492482,-0.150652762400711,-0.07359708036168554,0.5202318581641829,0.04458348574201716,-0.5449513474095262,-0.5913942207880388,0.004710181064451644,817.5457875457876,803.040293040293,807.0695970695971,789.7435897435897,841.7216117216118,871.1355311355312,-0.303589,0.071045,0.946899,-0.755157,-1.966400,-5.891724,1,1,1,1,1,97.000000
2025-03-24 14:43:51.585,0.2503512024823304,0.9118489186016465,0.9002116775907379,0.6416036684614899,0.1783917992169982,0.07384297992241719,0.02884026072180709,0.5055451345289673,0.3802810414913646,0.3358196019032764,0.02647240889795692,0.9265265893386514,0.4616159906492482,-0.1585669130205211,-0.07966945237532105,0.3142918241050925,0.04458348574201716,-0.5181894328993103,-0.5370436694252273,-0.2919373243678658,808.6813186813187,803.4432234432235,798.6080586080586,769.1941391941392,810.2930402930403,618.901098901099,-0.321716,0.055969,0.934692,-0.710297,1.390686,-0.829926,1,1,1,1,1,97.000000
2025-03-24 14:43:52.086,0.8284286850021286,0.7713800299669609,0.2633040820897639,0.7554188731230314,0.3134304712096857,0.02040325460982892,-0.3561327906440713,0.4430665729683481,1.129918566988642,0.158208612152716,0.189495257722727,1.112495713753638,0.4653255013107567,-0.1702573447135847,-0.1648369482988354,0.3380262974268491,-0.1889971034900481,-0.5108750260315948,-0.6070140613118564,-0.2382815081617464,811.5018315018315,805.0549450549451,803.8461538461539,807.0695970695971,930.3663003663004,737.7655677655678,-0.319824,0.057678,0.939331,0.598145,-1.988831,-0.231781,1,1,1,1,1,97.000000
2025-03-24 14:43:52.618,0.7836548650674164,0.5615159288274708,-0.02752678123969091,0.9555204456024421,0.3644800511444702,-0.0572294329116172,-0.3492858211495347,0.462555528163055,1.146205489552779,0.1366379843627192,0.1899495026445085,1.129070342408073,0.4438461167706229,-0.1722680561659917,-0.2120963539087607,0.3693617197888531,-0.2216634918185314,-0.4842449611784894,-0.6320796627932882,-0.2818564673169112,794.5787545787546,799.0109890109891,800.2197802197802,791.7582417582418,885.6410256410256,629.7802197802198,-0.320679,0.051270,0.944214,0.829926,0.119629,-0.000000,1,1,1,1,1,97.000000
2025-03-24 14:43:53.098,0.6475056089823817,0.1785560741150533,-0.1745010081724662,1.06512020246218,0.3994851986425292,-0.1073547871731682,-0.2630587215818688,0.6130087931402347,1.137277428968674,0.08261674620194505,0.2193942492125285,1.13709140118959,0.433077476292304,-0.1311224324333191,-0.2019935127617547,0.4040661766126587,-0.1062589618378764,-0.5129178231669151,-0.6619492832968271,-0.2245283253024293,801.4285714285714,802.2344322344322,801.4285714285714,795.3846153846154,888.4615384615385,740.989010989011,-0.318176,0.059448,0.942932,-0.037384,-0.889740,0.441132,1,1,1,1,1,97.000000
2025-03-24 14:43:53.606,0.5862443108549605,0.2154260359838789,-0.1935509037219273,1.071104465311773,0.380413126077177,-0.1414920459633857,-0.2817900297153663,0.7300813701700963,0.8974197201545085,0.0103924170295261,0.0881054085435205,0.9996995680645656,0.4278220799694804,-0.05784347213577386,-0.1556536662132759,0.5302623996666699,-0.03640371734462605,-0.5112863375420605,-0.6614452021710822,-0.2317875374213801,801.025641025641,801.025641025641,805.8608058608058,803.4432234432235,818.7545787545788,813.919413919414,-0.321167,0.061890,0.936462,0.171967,-0.927124,0.007477,1,1,1,1,1,97.000000
2025-03-24 14:43:54.116,0.9696551443252093,-0.08263381946753595,-0.09098045731360641,1.070528595447338,0.4440759040849377,-0.2487497644464549,-0.3070171960728548,0.7200191592888439,0.8111433999416945,0.02080014806304715,0.0805674140009677,0.9895481954657912,0.4469269201908698,-0.04517195736658629,-0.1335884240772083,0.5013385073883857,-0.01320945488281118,-0.4763928062700009,-0.6398205359798876,-0.2038092564968169,804.6520146520147,796.5934065934066,805.0549450549451,800.2197802197802,853.4065934065934,672.4908424908425,-0.322510,0.060486,0.934204,0.411224,-1.263580,-0.366364,1,1,1,1,1,97.000000
2025-03-24 14:43:54.591,1.000486296167941,-0.09937180344800745,-0.04225613181868036,1.009535407288629,0.388869626077092,-0.2212262070034494,-0.4811640424788042,0.5323257839432395,0.808900947970839,-0.04275928434072149,0.06346738822679053,0.8048508722995505,0.4344540414153072,-0.0639386716281931,-0.1284233522216073,0.4442147683845026,-0.1970940830815472,-0.4987554364332403,-0.6749244920458916,-0.2916742583066412,794.1758241758242,796.1904761904763,805.4578754578755,786.1172161172161,961.7948717948718,778.0586080586081,-0.323486,0.063599,0.935547,0.224304,-1.487885,0.448608,1,1,1,1,1,97.000000
2025-03-24 14:43:55.066,1.066974573097711,0.02528295973632854,-0.02180986053995758,1.048827635069729,0.4278764963025168,-0.06909833816004406,-0.5156637812083428,0.332077764420859,0.7579935769263393,-0.06416765640981792,-0.06221277120364418,0.7436853275071066,0.3567315428804086,-0.1000696842839107,-0.1393333357808479,0.2967289858030452,-0.3313947448845393,-0.5211112450860017,-0.6418484671680058,-0.3318190742711973,807.4725274725275,803.8461538461539,808.6813186813187,801.4285714285714,822.7838827838829,638.2417582417582,-0.327271,0.058716,0.938721,0.082245,-0.336456,-0.261688,1,1,1,1,1,97.000000
2025-03-24 14:43:55.579,0.8785285293191486,0.2933532932794897,-0.07152882883501543,0.8846150867379148,0.3908772168851508,0.02130242519495772,-0.5173651971297193,0.2182075770527916,0.7834977265155277,0.08113440870922903,-0.2309971359033322,0.9566414303439478,0.3479772166684397,-0.04000109411421435,-0.1512044094937481,0.3063141723024848,-0.416671199464461,-0.4536704325897241,-0.5858568797432936,-0.4014536835596085,804.2490842490843,800.2197802197802,807.8754578754579,786.5201465201466,897.3260073260074,707.5457875457876,-0.326965,0.056091,0.941345,0.201874,-0.575714,0.059814,1,1,1,1,1,97.000000
2025-03-24 14:43:56.092,0.7301035902825663,0.2479708749410894,-0.05332110895989658,0.7093262148603711,0.3215181580366932,-0.04946430702112219,-0.3765133237853891,0.2195108977252799,0.8001023865665939,0.07926389187576076,-0.2337723258790572,0.9448645542489797,0.3093185634220736,0.01086534191352267,-0.09826642018385262,0.315933415678023,-0.4266321486202128,-0.4498367409774891,-0.5307888527393835,-0.4535597625257641,787.7289377289378,799.0109890109891,803.040293040293,795.7875457875458,946.4835164835165,915.0549450549451,-0.328430,0.060242,0.932922,0.508423,-1.345825,-0.074768,1,1,1,1,1,97.000000
2025-03-24 14:43:56.584,0.6596431964051223,0.09974454524753676,-0.1435261539346395,0.4107494295263464,0.2226999461420279,-0.1694131808751902,-0.3066400317537999,0.1023692489672271,0.7458701988547936,0.09963199294676535,-0.1319238459487871,0.9377906179809078,0.2791135452780555,0.01095613518646027,-0.1686866728545351,0.231920095132787,-0.4041159473481189,-0.4565561851703389,-0.5595431486888147,-0.439558274166385,803.4432234432235,800.2197802197802,807.4725274725275,809.4871794871796,918.6813186813187,731.7216117216118,-0.320679,0.069580,0.936951,0.014954,-0.889740,0.134583,1,1,1,1,1,97.000000
2025-03-24 14:43:57.066,0.5939053651021595,-0.4353098894547107,-0.2819577976817093,0.1856315690358487,0.1424595974338806,-0.2073266765331615,-0.327665763107172,-0.05102168966052305,0.6277028642997563,0.160674357685664,-0.1319238459487871,0.8394790443707879,0.2351409058587358,-0.09852102049523023,-0.2407936876797668,0.2364627556547469,-0.3689662191724287,-0.5497536731978006,-0.6583797441007827,-0.490063819420598,796.1904761904763,800.6227106227107,795.3846153846154,786.1172161172161,754.2857142857143,543.5531135531136,-0.321472,0.059082,0.938293,0.538330,-1.315918,-0.059814,1,1,1,1,1,97.000000
2025-03-24 14:43:57.615,0.751480145187874,-0.4303410901705992,-0.4231718031933654,0.2922347168734443,0.1801480172414991,-0.1511520291677131,-0.3491280650899076,-0.212973814098212,0.4555065764466305,0.0362413125912993,-0.1348964783638783,0.6653307377121892,0.2255448630874284,-0.1404688125192386,-0.2805884932224805,0.22074248283688,-0.3783813143319998,-0.5808560802945535,-0.7019783487873585,-0.4394851032527237,797.8021978021978,796.5934065934066,801.8315018315019,799.4139194139194,860.2564102564103,684.981684981685,-0.324097,0.070007,0.935791,0.314026,-1.024323,0.299072,1,1,1,1,1,97.000000
2025-03-24 14:43:58.083,0.7374741365488965,-0.348644746473432,-0.2999300737618284,0.5954125281782486,0.1734208264158124,-0.1736926425670116,-0.302105813545226,0.09964573035357845,0.840578492347227,0.07954699835685446,-0.1660811919539662,0.9492334941222657,0.3402038633086138,-0.2017502630610143,-0.3213171877992893,0.3244046896528365,-0.4290904309592272,-0.5704091418260258,-0.7020537036227774,-0.5163182429038315,806.6666666666667,803.4432234432235,809.4871794871796,798.2051282051282,929.5604395604396,735.7509157509157,-0.329712,0.063965,0.937195,0.598145,-0.949554,-0.590668,1,1,1,1,1,97.000000
2025-03-24 14:43:58.619,0.6382533282903948,-0.3921302670620344,-0.3322836361831537,0.6619557976198815,0.101969456307613,-0.3513921685130513,-0.3737048638820445,0.1547208705988883,0.8881443254581213,-0.1674477960112857,-0.1704843375078382,0.9969147669670226,0.3697939958391597,-0.1791100764659746,-0.2902022092427674,0.3860624889394629,-0.3818725444324306,-0.5238481607888219,-0.7609320592355731,-0.5211457901654426,804.6520146520147,799.0109890109891,803.8461538461539,796.1904761904763,930.7692307692308,763.1501831501831,-0.325439,0.066895,0.931702,0.456085,-1.884155,-0.216827,1,1,1,1,1,97.000000
2025-03-24 14:43:59.100,0.7370777081278916,-0.2958897884684371,-0.4247265726062796,0.6354901622646308,0.02968451540238147,-0.3381557753501089,-0.4871851463408017,0.1474600315692091,0.8881443254581213,-0.1888019437053074,-0.2116821577429963,0.9834827134978663,0.2905080243680225,-0.1897087982733506,-0.3112799761715719,0.3810118986700146,-0.3145259754387421,-0.5392891324835027,-0.7277006603025139,-0.4970732128442528,789.7435897435897,800.2197802197802,803.8461538461539,791.7582417582418,916.2637362637363,754.6886446886447,-0.330688,0.063477,0.933716,0.119629,-0.986938,-0.149536,1,1,1,1,1,97.000000
2025-03-24 14:43:59.571,0.7158769952020625,-0.2605899356863108,-0.4369489411760309,0.6565334888122866,0.001533069538033901,-0.3507349202793365,-0.6082697058547784,-0.007155979931089193,0.8196074831773842,-0.1923251965001347,-0.1345633223505477,0.9101172963611805,0.2354645016249668,-0.2185221030212365,-0.178195449621551,0.3883865560542996,-0.2402000191599599,-0.5110975195722962,-0.76153716267325,-0.4816740735044881,800.2197802197802,806.2637362637363,810.6959706959707,803.8461538461539,933.5897435897436,783.6996336996338,-0.332092,0.061584,0.933960,0.314026,-1.540222,0.171967,1,1,1,1,1,97.000000
2025-03-24 14:44:00.091,0.7305242401844319,-0.06671713904719938,-0.1045550147892528,0.6143434390288292,0.1489044161250815,-0.2727701184499765,-0.4087888666028128,0.05576516478492918,0.6943726227015194,0.01900109870129902,0.1287170776661243,0.5653866616985508,0.1818818095914738,-0.181796987747106,-0.1314643968033391,0.2916013230507192,-0.3354839456086857,-0.6095281312404005,-0.663542888622106,-0.411755217156401,795.3846153846154,801.4285714285714,804.6520146520147,793.3699633699634,930.7692307692308,779.2673992673992,-0.331726,0.062744,0.934875,0.463562,-0.964508,0.149536,1,1,1,1,1,97.000000
2025-03-24 14:44:00.590,0.6534247812609959,0.1103217887397778,0.2858838530566701,0.6624085094901241,0.1487684737406835,-0.1579910288944213,-0.3583233169019437,0.03593316471019454,0.7926801668839225,0.03316921103191554,0.2691787590536728,0.5518840976076019,0.2720233906365048,-0.1316898064345242,-0.1081394740105874,0.2726209402473903,-0.3427479197755297,-0.4965466051239001,-0.5292607350265878,-0.3709369873576047,817.1428571428571,804.6520146520147,799.0109890109891,792.1611721611722,816.3369963369963,630.989010989011,-0.329651,0.069153,0.934326,0.583191,-0.934601,0.239258,1,1,1,1,1,97.000000
2025-03-24 14:44:01.100,0.6392826816073296,0.1812509676772842,0.2813564629423651,0.6087004284067412,0.1374594729220895,-0.1861233098705059,-0.3528474028933477,0.1036202086576075,0.9512868085486698,0.03316921103191554,0.2758837649504982,0.7263423237691188,0.2449139430386012,-0.1200571060549881,-0.1483474107087896,0.2475861450135754,-0.3667087596323996,-0.5360201830809385,-0.4523357265302019,-0.3963688737387645,790.952380952381,794.1758241758242,796.1904761904763,784.1025641025641,855.4212454212454,703.1135531135532,-0.334167,0.061951,0.932678,0.269165,-0.635529,0.097198,1,1,1,1,1,97.000000
2025-03-24 14:44:01.585,0.5898157518947733,0.2003447663336599,0.2658885741055969,0.6576294870834067,0.03315695341855297,-0.283194017407336,-0.4151764983824753,0.1438655813618715,1.036552570868678,0.04072804797557071,0.2633456939940891,0.9694987239026175,0.2485681218205237,-0.1970727307560459,-0.1243470325695861,0.2910429635875832,-0.2818548063815341,-0.5498087652596073,-0.4927756298943324,-0.3303767354386861,808.2783882783883,803.4432234432235,804.2490842490843,802.6373626373627,898.9377289377289,727.6923076923077,-0.331726,0.062317,0.927734,0.867310,-1.099091,-0.426178,1,1,1,1,1,97.000000
2025-03-24 14:44:02.112,0.3038871956043458,0.28586911714367,0.05138059227029058,0.4916344313347566,0.03829694850445464,-0.4998637286419454,-0.2394258858757303,0.1955933413041398,1.393342551118684,0.01675942140031225,-0.08131133063171699,1.355963972451166,0.302995613402621,-0.2709965859326164,-0.1254222296452873,0.3163487266118029,-0.2717072665849066,-0.7246655865527711,-0.6308722363729126,-0.3913646430113312,809.4871794871796,802.2344322344322,804.6520146520147,799.8168498168499,912.2344322344322,731.7216117216118,-0.330933,0.067749,0.930908,0.343933,-0.635529,-0.373840,1,1,1,1,1,97.000000
2025-03-24 14:44:02.615,0.362852366592218,0.2124752346746235,0.04256121880612353,0.4659669147410305,0.1221715249898774,-0.278354551009384,-0.2092764878707987,0.1736806553647658,1.393673960553749,0.07045993991056627,-0.08131133063171699,1.351925782865639,0.2943161293415776,-0.2698479579825094,-0.1827760657415781,0.3202206145403922,-0.3333107158976528,-0.7289254624487397,-0.7198969396969969,-0.4018912627822714,800.6227106227107,801.8315018315019,805.8608058608058,804.2490842490843,848.974358974359,633.4065934065934,-0.334473,0.060852,0.934021,0.568237,-0.381317,-0.396271,1,1,1,1,1,97.000000
2025-03-24 14:44:03.117,0.3679014312448408,0.09664156159402454,-0.1120263673264889,0.30143478282396,0.1101270022375237,-0.2090387825110509,-0.2038243944199173,0.09512446817824011,1.352292132318452,0.04906139280923446,-0.03490411169849816,1.285897532756122,0.2697341224100852,-0.217250373055212,-0.2726791781170014,0.2372743756875328,-0.3696988913725854,-0.6929368803655992,-0.7197755068934124,-0.5395845573734647,806.6666666666667,801.4285714285714,803.8461538461539,788.1318681318681,937.2161172161173,800.2197802197802,-0.331604,0.065125,0.940491,0.029907,-1.031799,-0.104675,1,1,1,1,1,97.000000
2025-03-24 14:44:03.584,0.3200603084330081,-0.435271323306451,-0.4631626131322937,0.3490614076560424,0.1713142097730534,-0.2302876252689398,-0.3408422023308301,0.06683439661529235,1.351400084733597,0.02966337375036899,0.02213757259094312,1.261218844095036,0.255484491731348,-0.2443027151247351,-0.2708077629973988,0.2099967927227799,-0.4313477659648567,-0.6362692566856872,-0.70106114376589,-0.4931647688387815,794.981684981685,793.3699633699634,797.3992673992674,792.967032967033,799.8168498168499,619.3040293040293,-0.333801,0.064026,0.939148,0.321503,-0.814972,0.014954,1,1,1,1,1,97.000000
2025-03-24 14:44:04.122,0.4089344683965603,-0.1571386848164474,-0.334416804448947,0.6497370943325578,0.1767937790369813,-0.3283155045646855,-0.3303042480714083,0.3537849257350026,0.7231335116770655,0.0382154627655828,0.107074094387356,0.8052568736761331,0.2925153931845115,-0.2257452263392677,-0.2532791719653155,0.1840891927298994,-0.4354813143495311,-0.5078079484314878,-0.6567453920385832,-0.3612364716475621,805.0549450549451,797.8021978021978,806.6666666666667,793.3699633699634,869.92673992674,774.4322344322345,-0.332092,0.069153,0.932800,0.598145,-0.755157,-0.149536,1,1,1,1,1,97.000000
2025-03-24 14:44:04.615,0.6184737672762961,0.06940667028895263,-0.2934173324886505,0.7511283932945791,0.3549881809755501,-0.3053507025223845,-0.2510348549980187,0.5238522647753789,0.6554548405083526,0.03737994000239172,0.102541834485739,0.6715684729765047,0.2706667964424002,-0.2295244036874585,-0.2133109092385493,0.1850097957302118,-0.4405733975962461,-0.4799788472005627,-0.582895096370769,-0.2906990145107108,813.919413919414,810.2930402930403,792.1611721611722,805.0549450549451,866.3003663003664,669.6703296703297,-0.331299,0.067871,0.931946,0.702820,-1.353302,-0.082245,1,1,1,1,1,97.000000
2025-03-24 14:44:05.127,1.281193960177806,1.024691478555454,0.4259648568749563,0.8759928164789925,1.028734099380746,0.4993607397447799,0.06805001488594167,0.7356364598156409,0.854488879235783,0.3152573497540436,0.1194007132728783,0.5301986847702694,0.1715686856337254,-0.2021812841690377,-0.2295335701419466,0.1727945977199261,-0.4761667333150331,-0.4571576933766262,-0.5666385162337446,-0.2695029052872854,764.7619047619048,803.8461538461539,799.8168498168499,775.6410256410256,930.7692307692308,817.948717948718,-0.330444,0.065552,0.934998,0.149536,-1.293488,-0.104675,1,1,1,1,1,97.000000
2025-03-24 14:44:05.593,1.405861067415479,1.112377909567828,0.5293188493625613,0.8366378402201406,1.104828753425167,0.5771210981036995,0.04198262762080312,0.79506277576296,0.9501934583406436,0.3781163160826982,0.08073349117791478,0.52902178057414,0.2358967290194715,-0.2099904218109638,-0.2071793999699862,0.1520570303362634,-0.4818722170206784,-0.5569987060260598,-0.6000858698329964,-0.3229257965029801,809.0842490842491,794.5787545787546,805.8608058608058,803.040293040293,839.3040293040293,639.8534798534798,-0.330200,0.067688,0.936218,0.643005,-1.196289,-0.000000,1,1,1,1,1,97.000000
2025-03-24 14:44:06.114,1.468911026531512,1.140623073495828,0.562644952068407,0.8781676421050583,1.119402217482739,0.6134255119185651,-0.03019252783578824,0.8441534784806917,0.9659794211868823,0.3759498300392913,0.1547238422228983,0.505165806411509,0.3249331798688889,-0.2206662145568888,-0.2084433752313609,0.1015486444130254,-0.4931021665845158,-0.563856896071035,-0.6396387351027309,-0.4020105110222741,794.1758241758242,809.8901098901099,799.8168498168499,792.5641025641025,947.6923076923077,719.2307692307693,-0.327209,0.068848,0.939453,0.127106,-1.009369,-0.074768,1,1,1,1,1,97.000000
2025-03-24 14:44:06.615,1.284771036884182,0.8417981367642793,0.3582643723775109,0.8039889373770581,0.8319721649170408,0.3223212411286417,-0.3702907768962399,0.5966206402715611,1.061406989747502,0.2884511857878745,0.1140596946843004,0.8699501884955531,0.439349081302857,-0.2500684766967909,-0.1705306154774955,0.4413499421477949,-0.3725128990483827,-0.5693745226502664,-0.5637409119665078,-0.5849773657883576,802.6373626373627,800.2197802197802,803.8461538461539,803.4432234432235,856.6300366300367,659.5970695970697,-0.332947,0.063232,0.932556,0.456085,-1.383209,-0.336456,1,1,1,1,1,97.000000
2025-03-24 14:44:07.121,1.120140588370848,0.5572119060699962,0.07910573006414644,1.129963629447711,0.6126251083604315,0.126711808443974,-0.4672520825310233,0.7827920778978196,1.136647065673177,0.1811876884620358,0.01133923843928976,1.104913335348309,0.4073863403672325,-0.2805934111798494,-0.1443649681458131,0.3844459625513371,-0.3567155359543122,-0.4863297194051922,-0.5357965199779199,-0.5632911695035792,804.2490842490843,793.3699633699634,804.6520146520147,802.2344322344322,880.8058608058608,840.5128205128206,-0.331360,0.069031,0.938171,0.186920,-0.523376,-0.478516,1,1,1,1,1,97.000000
2025-03-24 14:44:07.615,1.117121513294624,0.5406427464170339,0.09228365673521825,1.252330315766088,0.5567375213059477,0.05736176097161232,-0.4142232710317175,0.8399438286495863,1.326162283247336,0.163301487484307,-0.1213957411387941,1.130750088785721,0.4172473893998747,-0.2987029832286083,-0.1509862901250085,0.3588612349591467,-0.3859539139083571,-0.4664556137661355,-0.5530474286084868,-0.5718854016218852,811.9047619047619,797.3992673992674,803.8461538461539,799.0109890109891,916.2637362637363,862.6739926739926,-0.335449,0.065857,0.932922,0.665436,-0.336456,-0.067291,1,1,1,1,1,97.000000
2025-03-24 14:44:08.071,1.162097420530277,0.7127060938252965,0.2019852536859999,1.361620654067243,0.5400944434759992,0.2462206370853664,-0.3652686410019212,0.9157253481669244,1.326162283247336,0.163301487484307,-0.0696040091148262,1.130750088785721,0.3081614529377892,-0.2483872936515268,-0.203885567557182,0.3164847505284459,-0.4250699767083332,-0.4178224196685947,-0.5606961269045672,-0.5661910736537704,803.040293040293,800.6227106227107,793.7728937728938,799.0109890109891,887.6556776556777,701.5018315018315,-0.326721,0.064941,0.939087,0.755157,-1.188812,0.231781,1,1,1,1,1,97.000000
2025-03-24 14:44:08.585,1.12598563686436,0.6886759640637123,0.2825027547944489,1.448161262841943,0.4643138768683366,0.1950271771716002,-0.4092353496863736,0.9680710445709368,1.275954522135533,0.1664018569202549,-0.111097091501202,1.101416672778618,0.2945611842392824,-0.1949472652416083,-0.2238326058794514,0.3555437003199854,-0.4442335986373694,-0.4055529105911883,-0.5837674510347908,-0.5804610740130504,786.9230769230769,793.7728937728938,797.8021978021978,793.3699633699634,859.047619047619,631.3919413919414,-0.336792,0.067749,0.933838,0.426178,-1.816864,-0.127106,1,1,1,1,1,97.000000
2025-03-24 14:44:09.098,0.940452814356159,0.5575727513631096,0.2445481878804273,0.9884852755010852,0.4665774235341051,0.1380578246010383,-0.3593629722248297,0.1917425189005479,1.055115915083528,0.02179057089453282,-0.1669220120625374,1.105311474182099,0.3206255085525584,-0.1138385654628335,-0.208414411650604,0.5302520741122819,-0.4165401964947989,-0.3798012013859557,-0.5250597544588775,-0.3229256307208434,807.8754578754579,799.0109890109891,799.4139194139194,803.040293040293,855.8241758241759,643.0769230769231,-0.335022,0.067993,0.936707,0.306549,-1.368256,-0.224304,1,1,1,1,1,97.000000
2025-03-24 14:44:09.614,0.8593349823888401,0.2979799474117328,0.237510288629814,0.9312688747870389,0.4932337397631463,-0.1273364236019801,-0.1788575763396328,0.2196599667291265,1.008927926601437,0.04225729373739875,-0.2412949454558213,1.105311474182099,0.3885919273165471,-0.1056528788059104,-0.2169928015491631,0.4782375488486372,-0.4094536859904603,-0.4586523917893783,-0.5602301039212886,-0.2719233736180218,817.1428571428571,799.4139194139194,797.8021978021978,809.4871794871796,831.6483516483516,670.8791208791209,-0.331116,0.065063,0.933594,0.762634,-0.747681,-0.216827,1,1,1,1,1,97.000000
2025-03-24 14:44:10.117,1.0293966433327,0.3569036493836259,0.2529501512389596,1.167070150011176,0.590303003549993,-0.06499078831165966,-0.09906048572442409,0.5378707725665454,1.010777231033796,0.05451725366189104,-0.06871546650152216,1.127314775938403,0.4268123976947219,-0.07358094742192993,-0.2098100202841652,0.4582774690527589,-0.3542726649636407,-0.5211415062578137,-0.585772637659514,-0.3124063597539452,787.7289377289378,799.0109890109891,799.4139194139194,795.7875457875458,859.8534798534798,825.6043956043957,-0.329651,0.065430,0.935242,0.807495,-1.525269,0.201874,1,1,1,1,1,97.000000
2025-03-24 14:44:10.581,1.063853217834227,0.456227239913352,0.3053769980507314,1.30186860481739,0.5632625286189878,-0.07685574290736021,-0.06962631890726016,0.7373173990841532,0.7712686437399363,0.009901325361792114,-0.01681403366711292,0.733711820848083,0.3846665615079763,-0.0482560125866861,-0.2800853599930238,0.3580850899886318,-0.306966208935862,-0.5888614879161229,-0.6026024791069843,-0.3657260552841289,806.6666666666667,800.2197802197802,811.9047619047619,813.1135531135532,858.6446886446887,687.3992673992674,-0.329895,0.071289,0.932373,1.099091,0.321503,-0.254211,1,1,1,1,1,97.000000
2025-03-24 14:44:11.084,1.265252924826565,0.5370088158248829,0.3748424141792597,1.461723435190183,0.6585939387074463,-0.04113083718110635,-0.1317715037987962,0.8734655220408791,0.2802016187784003,-0.01486613994184185,-0.01567971273358354,0.5179019721419884,0.3171318621727713,-0.02652354671543863,-0.3073109020647834,0.3238011619337665,-0.3003737746476369,-0.5132977444237846,-0.5269716381085593,-0.6700600612398763,794.5787545787546,798.6080586080586,805.4578754578755,796.1904761904763,820.3663003663004,644.2857142857143,-0.337036,0.072876,0.932068,0.433655,-1.061707,-0.314026,1,1,1,1,1,97.000000
2025-03-24 14:44:11.581,1.265252924826565,0.3849822294703874,0.2565176005744622,0.9104631183344286,0.6585939387074463,-0.1818414827819465,-0.1375785218180668,0.2930072122592857,0.2802016187784003,-0.04977474558359137,0.06458739508632255,0.5829344963873573,0.3171318621727713,-0.09358142305283772,-0.2235961019717053,0.2183037117238506,-0.3003737746476369,-0.5238763130255862,-0.4988181339045902,-0.6084237672302331,793.3699633699634,801.4285714285714,799.8168498168499,793.7728937728938,916.6666666666667,749.8534798534798,-0.333313,0.072327,0.934753,0.485992,-1.510315,-0.747681,1,1,1,1,1,97.000000
2025-03-24 14:44:12.093,0.623370855063214,0.2038235880538716,0.1707896614183948,0.5894829654837297,0.02959169894500984,-0.2847900980771285,-0.1933008743611648,0.1458158859115437,0.15401911860937,-0.1297696904105106,0.09092139161863375,0.6700742831922595,0.1842195288676259,-0.1472475934329094,-0.1652285084438052,0.188226961801522,-0.4093227675453278,-0.4549146127042381,-0.4753995834361531,-0.6139321436330176,792.967032967033,803.8461538461539,789.3406593406594,780.0732600732601,839.7069597069598,660.4029304029305,-0.328552,0.072266,0.938660,0.485992,-1.562653,0.022430,1,1,1,1,1,97.000000
2025-03-24 14:44:12.614,0.669814428125431,0.5570433939625981,0.2342031101961992,0.5894829654837297,0.126982943760213,-0.1082375552675198,-0.2699702340808438,0.1458158859115437,0.2006263861365442,0.0279647614391508,0.09645704580620762,0.6700742831922595,0.2016472228908096,-0.1122407069467724,-0.1157371233601351,0.188226961801522,-0.4032339946995293,-0.4246014623215433,-0.515009702239636,-0.6139321436330176,791.3553113553114,805.8608058608058,803.040293040293,791.7582417582418,921.0989010989011,721.6483516483516,-0.335327,0.066223,0.928894,0.523376,-0.590668,-0.127106,1,1,1,1,1,97.000000
2025-03-24 14:44:13.083,0.6655172133955355,0.8781066866326237,0.4802824468299236,0.1767011920087242,0.1629920679426544,0.1282563731513058,-0.2667313276723123,0.121894789106018,0.1469884794289386,0.009092056107648624,-0.03115639682131753,0.620923308982955,0.2635667646521668,0.03368531509697927,-0.1536381848176281,0.1451548972741719,-0.3551244401016013,-0.3858180670311375,-0.5169793999171277,-0.6481930310486371,784.9084249084249,813.5164835164835,796.5934065934066,763.956043956044,871.5384615384615,656.3736263736264,-0.330811,0.071228,0.941223,-0.022430,-0.785065,0.074768,1,1,1,1,1,97.000000
2025-03-24 14:44:13.614,0.7435398358067454,0.9181284291274641,0.4783193338090497,0.1767011920087242,0.2600405143647152,0.1509805109001867,-0.1971467098355125,0.121894789106018,0.01844131913690819,0.01635093341107805,-0.06485940599292934,0.620923308982955,0.3422310117235957,0.07083472639363121,-0.1440672220503799,0.1451548972741719,-0.2860595427719909,-0.4456821923915785,-0.5561958319991027,-0.6481930310486371,794.5787545787546,806.6666666666667,797.8021978021978,790.5494505494506,867.9120879120879,707.1428571428571,-0.328979,0.072021,0.936646,0.418701,-1.233673,-0.276642,1,1,1,1,1,97.000000
2025-03-24 14:44:14.126,0.8837174827968282,0.6060218521880677,0.279351696237832,1.187644395695334,0.2942044000639642,-0.0004588743886126099,-0.2295581678508521,0.4334867755174673,0.4160252431739063,-0.05831691116820151,0.1517631386935832,0.7675053699579675,0.3081984910134758,0.04762426004179413,-0.1083703508639701,0.1330413206588149,-0.4089326561462154,-0.6632957474429874,-0.6164269724907619,-0.2607727333609622,804.2490842490843,801.8315018315019,796.996336996337,800.6227106227107,843.3333333333334,668.4615384615385,-0.331360,0.069153,0.936951,0.725250,-0.844879,0.142059,1,1,1,1,1,97.000000
2025-03-24 14:44:14.614,0.7418188815909433,0.3064261968784665,0.1790719057190455,1.079650853251422,0.2293127940418765,-0.1545615838262411,-0.2442175933405026,0.3952949913523001,0.4173828588741465,-0.09337874566976276,0.1424706338889618,0.7719037404821137,0.2830510470957873,-0.003216060599496885,-0.08681968018031309,0.1236686831866664,-0.3620557467030976,-0.7188555631486604,-0.5915508887555391,-0.3246745204072038,806.2637362637363,802.2344322344322,805.8608058608058,804.2490842490843,810.2930402930403,664.0293040293041,-0.326843,0.078735,0.939941,0.620575,-0.949554,0.067291,1,1,1,1,1,97.000000
2025-03-24 14:44:15.120,0.6069822254464173,0.009316668869510181,0.1529465116655306,0.7601349676503023,0.1458827935495105,-0.2204130947512127,-0.3445128005587122,0.2193040811015875,0.4654628457776359,-0.06063107602639174,0.1424706338889618,0.7607936553827915,0.3279465308876636,0.007553122269251244,-0.04419946066361288,0.1542086632976838,-0.3286655905744225,-0.7075099869656543,-0.6088130877065837,-0.4379503900915353,771.2087912087912,825.2014652014652,797.3992673992674,755.4945054945055,871.941391941392,684.1758241758242,-0.329529,0.075439,0.936707,0.643005,-1.772003,-0.157013,1,1,1,1,1,97.000000
2025-03-24 14:44:15.619,0.8552786127496237,0.5063248242632329,0.120043384179294,0.9424026632048766,0.4503912821957161,0.1076056587038873,-0.2430078993822075,0.5133746462640018,0.627544950815516,0.1525322040667852,0.0388808004411992,0.7334964006766971,0.3900769399952032,-0.00586451568851913,0.001402390446207225,0.187963649803686,-0.3013653628787553,-0.6931646296539988,-0.6284678378807407,-0.5703501492289045,808.6813186813187,804.6520146520147,803.4432234432235,802.2344322344322,836.8864468864469,826.007326007326,-0.329224,0.076416,0.937988,0.269165,-1.585083,-0.224304,1,1,1,1,1,97.000000
2025-03-24 14:44:16.082,1.10575465890534,0.6313055399159699,-0.0003547952264137649,1.14010467666456,0.6062302028253839,0.3032486329589862,-0.1985677675614638,0.6077206958279187,0.7738707386733301,0.1488750005929918,-0.1942980267697287,0.968676898009256,0.3989486418108447,-0.04362914372255953,-0.05050394457740306,0.1647648421838919,-0.3305947505668418,-0.7337897624760884,-0.5851768801431313,-0.6605811450168859,789.3406593406594,792.5641025641025,797.3992673992674,795.7875457875458,812.7106227106227,624.5421245421246,-0.331543,0.073120,0.932495,0.388794,-1.330872,0.201874,1,1,1,1,1,97.000000
2025-03-24 14:44:16.589,1.213576982895474,0.6606910863518383,0.01185476346931385,1.272568349996695,0.7198953330114349,0.3322313206819527,-0.06083790498276339,0.6456943709875613,0.883834270346098,0.08030159950291667,0.02033051049449626,0.9680756820986099,0.3127214646582579,-0.1329306906478351,-0.09038893393606562,0.2311771071584731,-0.3816515343041983,-0.7863789099392227,-0.5697735796721853,-0.6524548254159035,812.3076923076924,806.6666666666667,796.5934065934066,793.7728937728938,851.3919413919414,737.3626373626374,-0.327881,0.073181,0.928223,0.792542,-1.106567,-0.037384,1,1,1,1,1,97.000000
2025-03-24 14:44:17.081,1.018335491660127,0.3658170410938567,-0.113654080506384,1.115476782547968,0.5072392008387007,0.1499994255827213,-0.02667807396485405,0.408683992406377,0.8944810384436691,-0.008171414653199758,0.1063326149763324,0.950646927810456,0.2629487338323175,-0.216244907814469,-0.2032069507262349,0.2558236600497977,-0.3141364452019855,-0.6810621345853928,-0.5127942746460133,-0.5759274658274252,794.5787545787546,799.8168498168499,800.2197802197802,792.1611721611722,840.9157509157509,638.6446886446887,-0.323853,0.070435,0.936523,0.500946,-1.211243,-0.164490,1,1,1,1,1,97.000000
2025-03-24 14:44:17.585,0.6888908968620318,0.06120991103637247,-0.3905177027455334,0.8490695110908808,0.2791105853828201,-0.183990947939122,-0.1070579279691323,0.1764292580221181,0.9325213125004371,-0.1559997570538444,0.1377689972045689,0.8415474139142238,0.2684712397102584,-0.2570114829779114,-0.1850213439806622,0.2580986796674105,-0.3496215808886611,-0.6059165686308026,-0.5274430401267191,-0.5297368919249235,803.8461538461539,793.3699633699634,798.6080586080586,801.8315018315019,844.5421245421246,671.2820512820513,-0.329590,0.068787,0.935303,0.471039,-1.061707,0.134583,1,1,1,1,1,97.000000
2025-03-24 14:44:18.082,0.6123421376830925,0.3042327551451004,0.1473315740468496,0.6823582786186777,0.1076868407701397,-0.1680491905716237,-0.310796663040239,0.3044199767189181,0.8208893411492402,-0.03903413777865603,0.1137942351539436,0.9176289870660564,0.3444660767075516,-0.2284428540045013,-0.1479335751294753,0.2216229064477521,-0.2997709757237961,-0.557337632531386,-0.5209995051092311,-0.5356987470585012,791.7582417582418,797.3992673992674,798.2051282051282,792.1611721611722,884.8351648351648,727.2893772893773,-0.328064,0.067932,0.939148,0.029907,-0.276642,-0.000000,1,1,1,1,1,97.000000
2025-03-24 14:44:18.581,0.6112675288298044,0.3244409053679394,0.2209624615960332,0.6052026876224782,0.03529336488866302,-0.1901449576865856,-0.5137119242147853,0.294341163643902,0.7812907175624715,-0.00406326613118434,-0.1362806912746905,1.033322662710613,0.3116532387716883,-0.1344207183756788,-0.09062759500148954,0.2536718388221129,-0.2802163031566939,-0.4883882572513658,-0.5619508951589163,-0.6468174933135892,794.1758241758242,800.2197802197802,794.981684981685,793.7728937728938,877.5824175824176,684.1758241758242,-0.329285,0.068787,0.940552,0.306549,-0.755157,-0.104675,1,1,1,1,1,97.000000
2025-03-24 14:44:19.105,0.6911836258234675,0.3184281049055129,0.3114489407507114,0.6425606948281304,0.05181898843098934,-0.1796189613653298,-0.3390234666205025,0.3890356710220628,0.5763440508692651,-0.00406326613118434,-0.03326543134945331,1.035369463611723,0.2833727018966676,-0.09001245889596254,-0.09005579716349399,0.2741256726724245,-0.2755764032797388,-0.5309846934770285,-0.5882341747958904,-0.6374486696018089,792.1611721611722,802.6373626373627,793.7728937728938,788.9377289377289,863.0769230769231,639.8534798534798,-0.322083,0.066772,0.935974,0.276642,-1.637421,-0.261688,1,1,1,1,1,97.000000
2025-03-24 14:44:19.587,0.4201627333830141,0.08263728880972389,0.1656624283032291,0.3709511031836948,-0.2346241714477622,-0.2557468140340559,-0.3458024521692946,0.2585516181884453,0.6027113751636867,-0.02034871271217568,-0.02575167250083196,0.978500213482803,0.2369083672113531,-0.108019918757792,-0.1435976229468902,0.2217902465396737,-0.2868803488091235,-0.5252726400775466,-0.6005663160955522,-0.5918798372583769,794.1758241758242,795.3846153846154,805.0549450549451,790.952380952381,900.952380952381,711.978021978022,-0.325439,0.067200,0.941040,0.373840,-1.674805,-0.388794,1,1,1,1,1,97.000000
2025-03-24 14:44:20.063,0.3285849420408695,0.1669182111669668,0.2190563550952007,0.3591319016203217,-0.2190518968614283,-0.3745772973449436,-0.3244706519530506,0.2286166484766839,0.7365360473199054,0.1525175002725158,0.01621311746354045,0.7968593998340335,0.2638594344314559,-0.1727891723070922,-0.09714720866159071,0.098839754130314,-0.3154465982178675,-0.5443566394935533,-0.6028573741330571,-0.4862168104242284,800.6227106227107,799.4139194139194,798.6080586080586,803.040293040293,894.1025641025641,711.5750915750916,-0.322083,0.069275,0.938171,-0.044861,-0.732727,0.127106,1,1,1,1,1,97.000000
2025-03-24 14:44:20.614,0.01613264171874464,0.2899786201573229,0.2476687746820443,0.2440060520580894,-0.169465368906272,-0.3102268212151225,-0.3466521152150262,0.03835169142687048,0.7562905497390781,0.1539902941033657,0.02939403977069954,0.7959615819416304,0.2883927688560099,-0.1431191494455063,-0.07243546113595323,0.1344098479806259,-0.2221393807259227,-0.5234074511150542,-0.6313949180260363,-0.4265818203513116,799.4139194139194,808.2783882783883,801.4285714285714,795.3846153846154,906.1904761904763,721.6483516483516,-0.322266,0.063599,0.938721,0.328979,-1.196289,-0.254211,1,1,1,1,1,97.000000
2025-03-24 14:44:21.148,0.529320569687604,0.7368357138592398,0.2840704360249515,0.2077672326611588,-0.05816430721332782,-0.1676325288849364,-0.2167967910923204,-0.1306161535073659,0.7567867296194508,0.2545054307732443,-0.09034539509550579,0.7938331835963012,0.2866577320504836,-0.1278140132596217,-0.008507783386026197,0.1830969701535141,-0.2161337003378777,-0.5439015676586691,-0.6381084234070367,-0.3819808863477052,794.5787545787546,807.4725274725275,802.6373626373627,794.981684981685,890.8791208791209,784.9084249084249,-0.325562,0.066650,0.939819,0.590668,-1.921539,0.358887,1,1,1,1,1,97.000000
2025-03-24 14:44:21.614,0.6027651724364316,0.8354639536457568,0.2458266942932634,0.107126363427347,-0.0247202978952713,-0.07542111428826878,-0.1079395479808713,-0.2239221276422034,0.727663520904557,0.2461160967134938,-0.0986190420222038,0.7934319576390831,0.2073340554967034,-0.08658067959080776,-0.05208120769267793,0.2400627351986228,-0.217387991738498,-0.6029768414841749,-0.5432909852985678,-0.3215096628112971,805.4578754578755,801.4285714285714,811.9047619047619,809.8901098901099,878.7912087912089,733.7362637362637,-0.323425,0.068176,0.936218,0.687866,-1.353302,-0.366364,1,1,1,1,1,97.000000
2025-03-24 14:44:22.064,0.701688820954113,0.7819235200499572,0.1661744844803663,0.4040561728496693,-0.003633633438471932,-0.04988132903651152,-0.1304648839139761,-0.117600994007224,0.6908481439393555,0.1522556747838279,-0.117946905319206,0.5104478671438329,0.2293551487115169,-0.1649319282601265,-0.1036292263536989,0.1639447281575249,-0.2948475885599395,-0.5770102874624585,-0.5048529334691271,-0.3425962243420912,799.4139194139194,801.8315018315019,806.2637362637363,805.4578754578755,893.6996336996338,695.4578754578755,-0.323914,0.065247,0.936584,0.478516,-1.248627,-0.231781,1,1,1,1,1,97.000000
2025-03-24 14:44:22.570,0.4998855377632457,0.3522279582445836,0.08841608127915682,0.3975772986827857,0.09837825539430238,-0.03588416231609636,-0.1431876913677211,0.08959561707722023,1.307057333689631,0.3294977443507713,0.0346464086367824,0.6953538453876732,0.2921614723469351,-0.1373014220103321,-0.1983680784006874,0.1350905463611506,-0.3060043515261658,-0.5585767241507134,-0.4923235916581102,-0.4264726807291652,807.4725274725275,799.0109890109891,808.2783882783883,801.4285714285714,876.3736263736264,701.0989010989011,-0.328308,0.062866,0.939087,0.433655,-2.332764,-0.179443,1,1,1,1,1,97.000000
2025-03-24 14:44:23.082,0.460268501965097,-0.5101689613776564,0.0343352620631082,0.5297795667813358,0.2072442806634888,-0.03883409061928899,-0.2721625041438137,0.1750831700390229,1.457444744698747,0.4216941053211076,0.07808687964978453,1.020998236288152,0.3347870770071209,-0.2180655403824595,-0.2240597249582046,0.1361269682957403,-0.4033698847321966,-0.5834902741276885,-0.6398806358236396,-0.6102548703491132,803.8461538461539,807.0695970695971,801.025641025641,805.8608058608058,873.956043956044,666.0439560439561,-0.320435,0.061157,0.942444,-0.082245,-0.209351,-0.314026,1,1,1,1,1,97.000000
2025-03-24 14:44:23.573,0.323164459550246,-0.4446536849949962,-0.0450696605956333,0.3676319634575806,0.2853787668647234,-0.09412151896362966,-0.2684238120650232,0.2498580936700842,1.457444744698747,0.4216941053211076,0.09206069358846043,1.017537698102314,0.3126305548357589,-0.2027833977467741,-0.236211040832187,0.2491785014267204,-0.454623563162908,-0.6822205715306305,-0.6898379511739524,-0.6207944308809449,781.6849816849817,797.8021978021978,808.6813186813187,813.919413919414,855.4212454212454,684.5787545787546,-0.318604,0.064636,0.937866,0.388794,-1.510315,0.037384,1,1,1,1,1,97.000000
2025-03-24 14:44:24.065,0.1938805252463305,-0.3044388721618955,-0.2972092006593993,0.4544503489788306,0.1752419100089489,-0.2173411222755691,-0.4437801997284059,0.2128981642159421,1.450701022853958,0.4216941053211076,0.07269725863247094,1.013941771651657,0.270344018059438,-0.2374165892491481,-0.2440909152498198,0.2697869617752247,-0.4229017677174657,-0.6616372402122395,-0.6708293960315928,-0.5496854121764075,805.4578754578755,804.6520146520147,803.4432234432235,812.7106227106227,884.0293040293041,688.2051282051282,-0.317139,0.064941,0.944153,0.515900,-1.226196,-0.029907,1,1,1,1,1,97.000000
2025-03-24 14:44:24.613,0.1225757771373405,-0.3186051334369411,-0.3793904457596102,0.4158975073621874,0.067470131637636,-0.2574269592433297,-0.4568842372768866,0.3086573755147357,0.830554132735807,0.008322784949109355,0.06177781794397184,0.9599380937970426,0.2581848300241731,-0.2539822089435479,-0.2629342105387812,0.2593530732837322,-0.3690131980319317,-0.6412278380577923,-0.5561292557544564,-0.5240863658098678,811.5018315018315,805.8608058608058,802.6373626373627,803.8461538461539,795.7875457875458,601.1721611721612,-0.317871,0.071533,0.938843,0.478516,-1.099091,0.022430,1,1,1,1,1,97.000000
2025-03-24 14:44:25.063,0.1422636072701727,-0.2530998934815529,-0.3404245311673195,0.6891443210291661,-0.02016259680054662,-0.3268164970426152,-0.5864506466882931,0.3475034029115767,0.5142260068803609,0.05917611329670648,0.005023424290887982,0.9599380937970426,0.2336113929053331,-0.2458527987486091,-0.2423256057591983,0.2306966736451902,-0.3518486253831869,-0.5890581299456815,-0.5369605656102752,-0.4866099873497834,794.981684981685,793.3699633699634,801.4285714285714,791.7582417582418,852.1978021978023,680.952380952381,-0.317810,0.070129,0.943359,0.104675,-1.502838,-0.508423,1,1,1,1,1,97.000000
2025-03-24 14:44:25.613,0.1672655196670542,-0.2529636640090027,-0.2929983366155699,0.7402143133000262,0.05468229145863465,-0.4183603429899986,-0.5075165659735952,0.378133990332448,0.5719680941836945,-0.02067854414078669,0.02907364013026314,0.9588363852278076,0.164112716141194,-0.2254922798352368,-0.1795899467311591,0.2254466265365953,-0.3724423141087849,-0.5645945651968455,-0.5605078490488702,-0.4265259564987632,801.4285714285714,803.8461538461539,801.025641025641,797.3992673992674,846.5567765567765,657.985347985348,-0.320984,0.067932,0.936035,0.426178,-0.515900,-0.433655,1,1,1,1,1,97.000000
2025-03-24 14:44:26.101,0.2790516068871617,-0.1169226546279449,-0.1458263091403814,0.6758903403055905,0.1313417607160096,-0.5232318213721926,-0.4045970882064966,0.3849221232718402,0.4939261014357991,-0.04636977821956815,0.1420582247136153,0.6683034504300005,0.03580951151274264,-0.184896811602309,-0.08777260565081925,0.3150163938178574,-0.4561276736435621,-0.5712084329745828,-0.6262947718907631,-0.3697787774305072,785.3113553113553,807.0695970695971,805.0549450549451,772.014652014652,890.0732600732601,693.8461538461538,-0.314026,0.065430,0.942993,0.657959,-1.674805,-0.254211,1,1,1,1,1,97.000000
2025-03-24 14:44:26.590,0.581284526243339,0.2515496006564837,0.2799207516177979,0.77601230494188,0.07595912332624921,-0.4857666405162299,-0.4019497449506752,0.3177636491122389,0.5325940417288079,0.09630359373166655,0.08759059857224534,0.8375110710889405,0.1202781292947945,-0.1545111784558008,-0.1132248568884266,0.2989303808160804,-0.3954775459323456,-0.5413411214445816,-0.6411675294788349,-0.3486709398893776,803.4432234432235,796.1904761904763,798.6080586080586,812.3076923076924,921.9047619047619,697.8754578754579,-0.318420,0.064331,0.938660,0.351410,-1.323395,-0.231781,1,1,1,1,1,97.000000
2025-03-24 14:44:27.072,0.8341601816111005,0.6783839706221408,0.6950053432701828,1.141224563054899,0.07353753275373209,-0.3606598887359456,-0.2896180563256265,0.3999570045397583,0.5639691542728734,0.1294025182578294,0.08676809585279907,0.902216424421395,0.1662969112981954,-0.1892666037833096,-0.1482974844556354,0.2889645123496491,-0.3632058081817349,-0.5654311431903172,-0.6264519999152079,-0.3894876881732714,797.8021978021978,803.4432234432235,804.6520146520147,794.5787545787546,869.5238095238095,684.981684981685,-0.321472,0.069885,0.939636,0.680389,-0.538330,-0.000000,1,1,1,1,1,97.000000
2025-03-24 14:44:27.618,0.8301206972979264,0.6914967834664939,0.7056585338497094,1.202877742441133,-0.02388325022236986,-0.3874268320463576,-0.3637053231486487,0.3209222235108692,0.6357681878525451,0.1118740734462969,-0.01675293742763515,0.9138500273819326,0.2526835756089171,-0.1774912489365599,-0.1736546534079478,0.2522587880202243,-0.3456104701732313,-0.5182340179170634,-0.6222657463973053,-0.3714617989613238,798.2051282051282,799.8168498168499,803.8461538461539,802.2344322344322,862.2710622710623,628.974358974359,-0.315674,0.066406,0.942566,0.224304,-0.964508,-0.411224,1,1,1,1,1,97.000000
2025-03-24 14:44:28.132,1.09829078503156,0.7072676142459803,0.6724423112672766,1.372470643332747,0.4919780708582039,-0.2450977317392426,-0.230739053451237,0.6775821110626988,0.7812360178105426,0.1112274472308144,-0.0009702155007696414,0.9273533219164809,0.3004255058576688,-0.1283906698393809,-0.2255086415803995,0.4129297925688588,-0.3308209682667289,-0.4880098208367332,-0.5699463447760152,-0.4270707237433727,793.3699633699634,810.2930402930403,797.3992673992674,791.7582417582418,920.6959706959707,716.007326007326,-0.319214,0.066956,0.934875,0.231781,-1.188812,-0.500946,1,1,1,1,1,97.000000
2025-03-24 14:44:28.615,1.164981150587499,0.36293359084541,0.4196931167829834,1.300652132079898,0.6405166544049483,-0.1933847810497041,-0.1510899110726491,0.7517772174202698,0.7882201927691179,0.1220247636437602,0.07340219691039929,0.7296591028376042,0.3452324419607899,-0.07037481430155995,-0.2099409075015765,0.4565841533326346,-0.3566233115535893,-0.4411006853402195,-0.5625951956352377,-0.4654246873654318,790.1465201465202,798.2051282051282,805.0549450549451,796.996336996337,889.6703296703297,841.3186813186813,-0.320496,0.070801,0.935913,0.388794,-0.613098,0.037384,1,1,1,1,1,97.000000
2025-03-24 14:44:29.096,1.160533005120006,0.4810966137727878,0.4196333007469518,1.249205880618807,0.7074405453365328,-0.1017098175157831,-0.1006601487154159,0.7658112640495088,0.6814565109605299,0.05075941605402477,-0.03088017839849246,0.6820474746601333,0.3109571470379311,-0.1263942121933485,-0.1986182013850814,0.4170554927075084,-0.3313772571716005,-0.4565009202819237,-0.5915340840664377,-0.5568544101416212,796.5934065934066,798.6080586080586,799.8168498168499,792.1611721611722,853.8095238095239,714.7985347985348,-0.321716,0.064087,0.936951,0.082245,-0.598145,-0.037384,1,1,1,1,1,97.000000
2025-03-24 14:44:29.582,0.8998400506034531,0.3806703048336313,0.4227842531680618,0.9220405415584858,0.4418053682428539,-0.1692757525100244,-0.08565702372825301,0.5149952430245637,0.6816591353522581,0.04354826327731664,-0.05675722593319182,0.6809038678924726,0.2416710698363076,-0.1799267018313187,-0.1651294472726721,0.3261800799295348,-0.2769409711364934,-0.4635820115453527,-0.5595768948820448,-0.5012200378104019,799.0109890109891,794.5787545787546,805.0549450549451,797.3992673992674,840.5128205128206,671.6849816849817,-0.322021,0.065857,0.936829,0.418701,-0.874786,0.082245,1,1,1,1,1,97.000000
2025-03-24 14:44:30.097,0.04081135267974432,0.2619795548630038,0.234021984243778,0.01418308056398871,0.03763780843535738,-0.2705495831202053,-0.2170508268916778,0.08122461634467168,0.2973598834450792,-0.1717166930777039,-0.1191651957531333,0.5334072822255562,0.1774977607800168,-0.1756289199774335,-0.06653791735440648,0.1686120839648553,-0.2297906516898164,-0.5927034856080289,-0.572515263275732,-0.4459122012339001,808.6813186813187,802.2344322344322,807.0695970695971,805.8608058608058,909.8168498168499,689.4139194139194,-0.314331,0.071777,0.942444,0.201874,-1.233673,0.134583,1,1,1,1,1,97.000000
2025-03-24 14:44:30.581,0.1782067159789268,-0.08350305715599274,0.149964734203186,0.1518254044129507,-0.3818304611444264,-0.3198448984614889,-0.2501272149110775,-0.03839544182380494,0.2717334928047212,-0.2211530798588706,-0.1429358453994307,0.5344634758892407,0.1466619775951423,-0.09684601460946762,-0.08071190826582643,0.231077005795235,-0.2237219195649502,-0.5950394476589962,-0.5973620463722111,-0.4290186207314464,794.981684981685,802.2344322344322,801.8315018315019,790.1465201465202,911.8315018315019,720.8424908424909,-0.319885,0.061829,0.938599,0.500946,-0.867310,0.149536,1,1,1,1,1,97.000000
2025-03-24 14:44:31.123,0.1683883552241154,-0.4395581564949985,-0.1168404837517408,0.3032021559945858,-0.316048169089856,-0.4151293192001649,-0.4129635746616227,-0.0188598406977622,0.237024154743675,-0.2228790074870929,0.1257456679654811,0.4377587505218534,0.1352868940551346,-0.01251196077391007,-0.08536177452935059,0.2623642007326967,-0.3615537542703946,-0.5634702776013822,-0.6850094228268383,-0.4836320123016301,824.7985347985348,804.2490842490843,802.6373626373627,815.1282051282052,959.7802197802198,796.5934065934066,-0.320679,0.068298,0.938110,0.358887,-0.882263,-0.343933,1,1,1,1,1,97.000000
2025-03-24 14:44:31.618,0.6048688406780872,-0.3604863970201578,0.05448884655234654,0.5158900795101791,0.01068365056071237,-0.434692839216106,-0.3268720889748707,0.01336156443163659,0.134146937574958,-0.1638603131927833,0.156416397967105,0.3947313720708131,0.1306112401298238,-0.04083007094070659,-0.1679671183948838,0.3125560180141344,-0.4527365465417357,-0.3846854379264758,-0.7287888862787311,-0.5426151199808605,806.2637362637363,805.4578754578755,803.8461538461539,794.981684981685,830.0366300366301,624.9450549450549,-0.323975,0.070251,0.939697,0.119629,-1.831818,-0.052338,1,1,1,1,1,97.000000
2025-03-24 14:44:32.083,0.7503863156900834,-0.2486100271915344,0.1135345394250651,0.7195562407157305,0.365888066845886,-0.5233464527447168,-0.304639563799978,0.05810908797445587,0.3703832678155364,-0.1765454034444574,0.1814402770393626,0.4722325910721993,0.1237080925712194,-0.06673306276724132,-0.08125236803233767,0.3204599949419165,-0.4963269314631431,-0.3863575153748338,-0.6306190964890528,-0.5088067978562952,804.6520146520147,809.8901098901099,800.6227106227107,798.2051282051282,903.7728937728938,754.2857142857143,-0.316650,0.066406,0.934326,0.650482,-0.949554,-0.059814,1,1,1,1,1,97.000000
2025-03-24 14:44:32.618,0.9461093402256198,0.02166461723011319,0.2685600895100946,0.8717537426384866,0.5958332029087712,-0.2783129137577368,-0.1674400711070035,0.2056288411618877,0.8264024104742809,-0.1790183673481267,0.2228224394244362,0.4792333768511065,0.1808156307306411,-0.1944712036394095,-0.1030866962116528,0.3132682170838006,-0.3738621285859403,-0.3926436859645496,-0.5595713025072895,-0.5032614441834119,802.2344322344322,799.0109890109891,811.0989010989011,794.981684981685,898.5347985347986,728.0952380952381,-0.318237,0.061829,0.940369,0.358887,-1.181335,-0.261688,1,1,1,1,1,97.000000
2025-03-24 14:44:33.083,0.9058598961582888,0.3004781575739403,0.2269745797953572,0.8446839490170005,0.6618804859779741,0.1014328302900893,-0.1046665061790613,0.2969884706034485,0.8306888208821795,-0.1028451311572301,0.1153033563872133,0.5212209269298258,0.2228586923677877,-0.2764240753685998,-0.1538053761304218,0.1878493695780392,-0.35844517078938,-0.5387620973415511,-0.5082654273363754,-0.4555030699184486,799.0109890109891,802.2344322344322,803.040293040293,795.7875457875458,913.8461538461539,709.9633699633699,-0.320923,0.068604,0.936035,0.201874,-1.517792,0.112152,1,1,1,1,1,97.000000
2025-03-24 14:44:33.577,0.8799237650976472,0.2831728219634196,0.2305291050723925,0.8273429419307953,0.6342045238826112,0.1140277199721207,-0.1061343029573179,0.3113874783163036,0.8306888208821795,-0.1160635429174879,0.1155924634150958,0.5094878905318154,0.2400986771908732,-0.2955306352488982,-0.3118262374515416,0.0878261165298982,-0.3526066294044566,-0.5797888829314939,-0.5630934348072694,-0.4945371201786875,794.981684981685,803.4432234432235,796.5934065934066,794.5787545787546,926.3369963369963,730.1098901098901,-0.314758,0.070557,0.940186,0.785065,-1.465454,-0.037384,1,1,1,1,1,97.000000
2025-03-24 14:44:34.110,0.6808499131823625,0.1339369181358133,0.3288356975333259,0.9153312722125794,0.4255249697573285,0.1645439253826881,-0.03373373572445645,0.3239711254361107,0.7353090119189781,-0.1199688297766584,-0.03464440931105058,0.4247537498875186,0.2315486217109761,-0.1867783992768796,-0.1998823399756019,0.04758398525443679,-0.3681464222742418,-0.5536006496882587,-0.6024684114081914,-0.5074239594070413,801.025641025641,800.2197802197802,800.6227106227107,797.8021978021978,867.5091575091575,686.1904761904763,-0.320862,0.067627,0.936340,0.343933,-1.054230,-0.194397,1,1,1,1,1,97.000000
2025-03-24 14:44:34.618,0.3759340664288521,-0.1867351695489199,0.2687950265691013,0.9035517012230767,0.03848985271710999,-0.0791039317714383,-0.05505638768731536,0.2946460097648321,0.8058350911864549,-0.2120970782206313,-0.06689308595638718,0.480607303320804,0.1789551371225807,-0.1719490798411066,-0.1147990113790171,0.1794413977471928,-0.2470500742113164,-0.5043541139681257,-0.6523078530007116,-0.4851970530703783,791.3553113553114,799.8168498168499,797.8021978021978,793.3699633699634,887.2527472527473,694.2490842490843,-0.323975,0.075256,0.931824,0.314026,-0.994415,-0.097198,1,1,1,1,1,97.000000
2025-03-24 14:44:35.096,0.097654311554406,-0.2361528760841482,0.2671922759896681,0.8802850091492416,-0.1112799648819538,-0.09566744635083772,-0.1019079974436853,0.2970657111356804,1.283736292976028,-0.06616450032087123,-0.1912706472543835,1.364554395691174,0.2384791704171633,-0.1950806963219975,0.007300697637460424,0.28903294399976,-0.1633963123044857,-0.5099455870902183,-0.53534946291591,-0.3795872775176364,796.1904761904763,799.8168498168499,795.7875457875458,789.3406593406594,847.7655677655678,634.2124542124542,-0.323914,0.065430,0.942017,0.171967,-0.717773,0.314026,1,1,1,1,1,97.000000
2025-03-24 14:44:35.582,-0.1707221021995935,-0.2355248246089927,-0.1688471806800529,0.5318693074563847,-0.05663027994917372,-0.3460463314039365,-0.3141302694831304,0.2409702882396061,1.362526472845748,0.1680350956981501,-0.06588817873016202,1.440128044267201,0.1887270867413392,-0.171290399734281,0.06164850449325435,0.4031233502576635,-0.1732691512558256,-0.5327378749021127,-0.5812813118881669,-0.3016901052223626,796.1904761904763,804.2490842490843,806.6666666666667,802.2344322344322,807.0695970695971,734.5421245421246,-0.321777,0.068237,0.939819,0.306549,-1.570129,-0.097198,1,1,1,1,1,97.000000
2025-03-24 14:44:36.077,0.03093349474132837,-0.04591629265353715,-0.1952674554253744,0.5129790424686249,0.07218563160879243,-0.2687152035550341,-0.1971560979540075,0.2554304205848135,1.3755046881675,0.2541298762513621,0.0042082575227457,1.448112169202548,0.1553271076529791,-0.1684950399455965,0.03663355482870652,0.3291203599442392,-0.1950784091523012,-0.5854770711317158,-0.5463210804480066,-0.3033927154942425,790.5494505494506,793.7728937728938,813.919413919414,799.0109890109891,888.8644688644689,710.3663003663004,-0.321228,0.067383,0.939026,0.441132,-0.792542,-0.463562,1,1,1,1,1,97.000000
2025-03-24 14:44:36.615,0.2257377141031446,0.1051448835074226,-0.1830580091844608,0.3477659171087213,0.2239630914597837,-0.2867921357583494,-0.0972101017850163,0.2180306675960269,1.390057949322392,0.2612960957990957,0.07009791486429519,1.448201114120785,0.1621370907551757,-0.176841086451073,0.01403163597279593,0.2825975465380307,-0.2387959954807057,-0.5200514315845923,-0.6025187229611371,-0.4144005159224572,805.8608058608058,808.6813186813187,796.1904761904763,799.8168498168499,904.5787545787546,697.4725274725275,-0.321594,0.067383,0.940613,0.500946,-0.829926,0.022430,1,1,1,1,1,97.000000
2025-03-24 14:44:37.080,0.4087062270065525,0.4222957715321209,0.276614945598878,0.1050756018084083,0.2529114982896317,-0.4201777130417501,-0.01946483154317265,0.06634105706142064,1.091760765123395,0.2369786671909114,0.06710490860598223,0.9955143260152673,0.1802928603948745,-0.1591562186611672,-0.06090630760600616,0.1897262585190497,-0.3221082409407559,-0.5286151084774003,-0.629197579668951,-0.5487118091082053,809.4871794871796,798.2051282051282,794.1758241758242,813.1135531135532,842.9304029304029,645.8974358974359,-0.320374,0.069153,0.941956,0.628052,-1.076660,-0.082245,1,1,1,1,1,97.000000
2025-03-24 14:44:37.618,0.4071709795341014,0.479041952876636,0.5265875931350649,0.2056253287387766,0.2418423931406005,-0.5578225148535196,-0.06319811632928,-0.0001361091235358113,0.9656508430277445,0.07630825532518475,0.02158917602071987,0.9616978255235017,0.2234346072373069,-0.1347756117678051,-0.116143907848072,0.2550543392155691,-0.3844202406750984,-0.4843504167120772,-0.6453662277926699,-0.5901614601828397,806.6666666666667,804.6520146520147,809.0842490842491,807.0695970695971,919.0842490842491,774.4322344322345,-0.321411,0.068970,0.934998,0.657959,-0.545807,-0.052338,1,1,1,1,1,97.000000
2025-03-24 14:44:38.079,0.4062816308977087,0.4107375345176473,0.5886689734566316,0.3121343989625164,0.06656396758087754,-0.4534472398383682,-0.141109315287427,-0.1625605005943544,0.6239615695041463,-0.1316677710940048,-0.02103788181945808,0.8015117571503373,0.2817552614036717,-0.1338481226080807,-0.1549714084232782,0.2342844862426797,-0.5330432305954148,-0.5495454823004154,-0.7674725414020344,-0.4924649731822175,803.4432234432235,797.3992673992674,802.6373626373627,805.8608058608058,861.0622710622711,715.2014652014652,-0.322571,0.067688,0.940186,0.560760,-0.852356,-0.254211,1,1,1,1,1,97.000000
2025-03-24 14:44:38.587,0.5001850344462215,0.1449550721162638,0.4753578724546934,0.4282904912886971,0.1103344877269463,-0.4947143317997171,-0.1516067953613072,-0.0713492298608919,0.4994090051628677,-0.1860288100679819,0.06306414119536208,0.7797881030875602,0.3104011240237495,-0.1970505425842411,-0.1847039423176954,0.130620037438251,-0.4936265840912669,-0.6095094872189255,-0.7165230010849202,-0.4747876140714635,792.967032967033,802.6373626373627,799.4139194139194,786.1172161172161,849.7802197802198,653.956043956044,-0.321167,0.066223,0.941772,0.403748,-1.562653,0.074768,1,1,1,1,1,97.000000
2025-03-24 14:44:39.098,0.662331663556797,-0.2032767586771321,0.02539323947149888,0.5544169606437093,0.06616344824318188,-0.5774877670623634,-0.2982860812591005,0.02126728456148176,0.5543053178795214,-0.2062240795337944,0.02593555766691195,0.789489652352649,0.3320724332971998,-0.2592371981405365,-0.1813491194069828,0.03329175803384628,-0.3459912585685792,-0.6162695778058905,-0.6049159196803763,-0.4113405650669787,801.8315018315019,799.8168498168499,800.2197802197802,805.4578754578755,898.5347985347986,689.0109890109891,-0.327271,0.071167,0.936646,0.373840,-0.261688,-0.299072,1,1,1,1,1,97.000000
2025-03-24 14:44:39.551,0.7644499406477318,-0.2005229211321296,-0.1981382611123958,0.7544440011249716,0.10275796779649,-0.6690233281183343,-0.3449602274163138,0.09584113538315468,0.5572718869181049,0.004196341560916536,-0.1038128376936606,0.789489652352649,0.3129029260579641,-0.2364557115889067,-0.2329335099760482,0.02244028019306995,-0.264745029044573,-0.576238806013695,-0.5801964360960399,-0.4221745520488878,809.0842490842491,808.6813186813187,794.981684981685,795.3846153846154,869.92673992674,710.3663003663004,-0.325317,0.069885,0.934570,0.149536,-1.450500,-0.157013,1,1,1,1,1,97.000000
2025-03-24 14:44:40.120,0.913542895143837,0.07142507410496664,-0.06219903638758147,1.067075734565654,0.03047216151919207,-0.07881638393451589,-0.4070110685705456,0.4563179934084634,0.7209000694180118,0.2510468751068248,-0.1060232361109535,1.39816571123264,0.4052497353558597,-0.1903439680753775,-0.3052585728861857,0.2012588987206621,-0.228349166395744,-0.4741625396534263,-0.5897237929820142,-0.3911976466245216,809.0842490842491,805.8608058608058,797.8021978021978,802.2344322344322,914.2490842490843,773.6263736263736,-0.325684,0.068665,0.937927,0.276642,-1.278534,-0.269165,1,1,1,1,1,97.000000
2025-03-24 14:44:40.617,0.8581296520202011,0.1506698140750065,0.09174496192077644,1.061606273484855,0.01114497898893332,-0.07824972380342801,-0.3110291505731946,0.4620658427337219,1.06596303845865,0.2519591538759172,0.1287585755526413,1.403190708624076,0.4955686853057656,-0.1222673172427799,-0.3142619755765798,0.3463825070837505,-0.2723993241028806,-0.4891287859285886,-0.6490604310719262,-0.4641212600434708,931.1721611721612,779.6703296703297,845.3479853479854,959.3772893772895,878.7912087912089,722.4542124542124,-0.329712,0.065857,0.929138,0.418701,-1.330872,-0.097198,1,1,1,1,1,97.000000
2025-03-24 14:44:40.629,,,,,,,,,,,,,,,,,,,,,,,,,,,,,,,,,,,,,,,/muse/elements/blink
2025-03-24 14:44:41.079,0.7612983496855268,0.9686454359023594,0.2129249178268374,1.018810394094324,0.05072105864852068,-0.004899718466328984,-0.1901750340838265,0.5715844359320047,1.06596303845865,0.3713327708555219,0.1264374756581089,1.403190708624076,0.5845714521265173,0.01694280778852244,-0.3104439392379678,0.4650832132428798,-0.3607932596237693,-0.51040111951027,-0.6182102604364133,-0.5067404011910722,805.4578754578755,803.4432234432235,801.025641025641,789.7435897435897,853.8095238095239,807.8754578754579,-0.242371,0.068542,0.972961,-3.648682,-17.062073,4.822540,1,1,1,1,1,97.000000
2025-03-24 14:44:41.618,0.200528393505021,1.076828332597452,0.3580217004099391,0.3738828355357781,-0.1191313700045953,-0.2586411872283867,-0.2738386974477709,0.2489252853051167,1.059222261555888,0.2320096096071171,0.1215228914394169,1.394396516145228,0.6167853604276813,0.03061281492912227,-0.2690980792297273,0.5963692312251074,-0.3317696935927039,-0.4788415451711486,-0.5284630635559482,-0.5567956809957371,797.3992673992674,792.5641025641025,806.2637362637363,794.981684981685,886.0439560439561,696.6666666666667,-0.194580,0.076172,0.981873,1.360779,-7.177734,3.020630,1,1,1,1,1,97.000000
2025-03-24 14:44:42.103,0.200528393505021,1.073979815043205,0.2831368777489422,0.3738828355357781,-0.1191313700045953,-0.1641075151287102,-0.03102190974608229,0.2489252853051167,1.059222261555888,0.3588425116461915,-0.03265489855570795,1.394396516145228,0.6167853604276813,0.1241199780735511,-0.06256640834912219,0.5963692312251074,-0.3317696935927039,-0.3707355693744243,-0.6311693524466534,-0.5567956809957371,803.4432234432235,801.4285714285714,795.3846153846154,803.4432234432235,909.4139194139194,783.2967032967033,-0.189453,0.069519,0.973511,-0.059814,-2.183228,1.644897,1,1,1,1,1,97.000000
2025-03-24 14:44:42.615,0.1783935439149304,0.7831982558377505,0.1384237974298782,0.2552597215424838,0.1523917614787487,-0.2004455354566051,-0.1098767507942127,0.3268919921096339,0.4998799435775214,0.3767484973695903,-0.03265489855570795,0.4419105050028003,0.3815961882259012,0.05695958798574515,-0.1554446157149425,0.113651755955807,-0.2448530474795526,-0.3682731923436735,-0.672509718071115,-0.3299810123548189,817.1428571428571,804.6520146520147,790.952380952381,814.7252747252747,915.8608058608058,764.3589743589744,-0.197998,0.065552,0.970337,1.443024,-3.274841,-1.121521,1,1,1,1,1,97.000000
2025-03-24 14:44:43.044,0.3589481438784827,0.04234222166493373,-0.05788670476990695,0.594391168644433,0.2466458671599337,-0.08265504379548293,-0.2199038051039276,0.5031811476878975,0.5113119855025802,0.3717064145300054,-0.02987833383909837,0.5297329981215603,0.2794313203178663,0.01456934480950428,-0.1767488763539197,0.06419369767863199,-0.3095876106946648,-0.3940415312119152,-0.6995418929615976,-0.3445573599632619,801.8315018315019,799.8168498168499,804.6520146520147,792.967032967033,840.1098901098901,662.8205128205128,-0.206116,0.059570,0.958862,-0.291595,1.286011,-0.074768,1,1,1,1,1,97.000000
2025-03-24 14:44:43.570,0.90355480243148,0.166630597774108,0.008786949963767275,0.8109456086105382,0.5223119585812295,-0.02236003737180672,-0.2849968698303096,0.6807619277037336,0.7404244270453744,0.2985888813501596,-0.1693080398753433,0.6147965304856717,0.2239917689866217,-0.2244257756532979,-0.2353323241110011,0.08048619504480824,-0.4219898423262566,-0.5097563939637658,-0.7248611510439298,-0.3994759873183093,805.0549450549451,803.040293040293,804.6520146520147,792.967032967033,808.2783882783883,728.0952380952381,-0.198364,0.061218,0.975952,-0.224304,-2.011261,0.934601,1,1,1,1,1,97.000000
2025-03-24 14:44:44.025,0.9173314883449121,0.1830815532567756,-0.005259883052864124,0.8025021438665462,0.5223714992030298,0.0688885883947912,-0.2160001176288295,0.6682186103569596,0.8388084039085384,0.1962981185411608,-0.163586343062712,0.6086097724126845,0.08476650076133939,-0.2718537093184097,-0.224219052451712,0.06101069996610278,-0.4913856523186854,-0.5290147252843956,-0.6914380001528839,-0.3097313862072439,794.5787545787546,797.3992673992674,799.8168498168499,792.5641025641025,878.7912087912089,766.7765567765568,-0.203125,0.062866,0.975464,0.269165,-0.171967,-0.859833,1,1,1,1,1,97.000000
2025-03-24 14:44:44.528,0.8663387841749326,0.1430296240885345,-0.05757880508500243,0.6719644220863202,0.5078121658603406,0.02183885682944633,-0.1765957987325414,0.6166930985093396,0.8261813602768824,0.0494785527669172,-0.1530754495463276,0.6025253496375476,0.07705329755590834,-0.1738311294254351,-0.2676131655829403,0.07142898999400872,-0.6001906292329802,-0.6113629807677239,-0.6755445581387824,-0.2694102434560748,810.6959706959707,803.4432234432235,802.2344322344322,800.6227106227107,751.4652014652015,603.992673992674,-0.198425,0.063782,0.983459,0.687866,0.897217,-0.276642,1,1,1,1,1,97.000000
2025-03-24 14:44:45.038,0.5848304830641088,-0.08777587562617076,-0.1742477725627697,0.3841680685743394,0.2459892143101645,-0.1190969442984802,-0.219809712951252,0.2642501128142353,0.7525737850491754,-0.006986854991269685,-0.1410537164702419,0.3092696809428029,0.1634223187098699,-0.1400388193265374,-0.2943541531348113,0.01988045741140986,-0.445733648841617,-0.6401418735886598,-0.653959243155343,-0.2828130933082675,797.3992673992674,803.040293040293,799.8168498168499,790.952380952381,823.992673992674,639.4505494505495,-0.197571,0.071594,0.986084,-0.530853,0.927124,-0.134583,1,1,1,1,1,97.000000
