TimeStamp,Delta_TP9,Delta_AF7,Delta_AF8,Delta_TP10,Theta_TP9,Theta_AF7,Theta_AF8,Theta_TP10,Alpha_TP9,Alpha_AF7,Alpha_AF8,Alpha_TP10,Beta_TP9,Beta_AF7,Beta_AF8,Beta_TP10,Gamma_TP9,Gamma_AF7,Gamma_AF8,Gamma_TP10,RAW_TP9,RAW_AF7,RAW_AF8,RAW_TP10,AUX_RIGHT,AUX_LEFT,Accelerometer_X,Accelerometer_Y,Accelerometer_Z,Gyro_X,Gyro_Y,Gyro_Z,HeadBandOn,HSI_TP9,HSI_AF7,HSI_AF8,HSI_TP10,Battery,Elements
2025-03-25 17:37:50.331,,,,,,,,,,,,,,,,,,,,,,,,,,,,,,,,,,,,,,,/muse/event/connected MuseS-9CF6
2025-03-25 17:37:50.373,0.561294571757857,0.1326964236937227,-0.02812764026603037,0.4208377113323802,0.6763092676354645,-0.1479537847348403,-0.3298028045204712,0.8257812058386205,1.53473773675347,0.1647268204147881,0.0274502250565372,1.537055318796749,0.3089212930178679,-0.0682993377444403,-0.1202838286965091,0.4604878707166828,-0.08669390626594772,-0.459535740608698,-0.5507794318955817,0.03791373707094074,821.1721611721612,798.2051282051282,813.5164835164835,807.4725274725275,882.014652014652,777.2527472527473,-0.233704,0.043213,0.969421,0.441132,-2.048645,0.343933,1,1,1,1,1,92.000000
2025-03-25 17:37:50.374,0.561294571757857,0.1326964236937227,-0.02812764026603037,0.4208377113323802,0.6763092676354645,-0.1479537847348403,-0.3298028045204712,0.8257812058386205,1.53473773675347,0.1647268204147881,0.0274502250565372,1.537055318796749,0.3089212930178679,-0.0682993377444403,-0.1202838286965091,0.4604878707166828,-0.08669390626594772,-0.459535740608698,-0.5507794318955817,0.03791373707094074,829.6336996336996,802.2344322344322,813.1135531135532,810.6959706959707,884.0293040293041,647.9120879120879,-0.233704,0.043213,0.969421,0.441132,-2.048645,0.343933,1,1,1,1,1,92.000000
2025-03-25 17:37:50.375,0.561294571757857,0.1326964236937227,-0.02812764026603037,0.4208377113323802,0.6763092676354645,-0.1479537847348403,-0.3298028045204712,0.8257812058386205,1.53473773675347,0.1647268204147881,0.0274502250565372,1.537055318796749,0.3089212930178679,-0.0682993377444403,-0.1202838286965091,0.4604878707166828,-0.08669390626594772,-0.459535740608698,-0.5507794318955817,0.03791373707094074,807.4725274725275,799.4139194139194,812.3076923076924,803.8461538461539,833.2600732600733,603.5897435897436,-0.233704,0.043213,0.969421,0.441132,-2.048645,0.343933,1,1,1,1,1,92.000000
2025-03-25 17:37:50.375,0.561294571757857,0.1326964236937227,-0.02812764026603037,0.4208377113323802,0.6763092676354645,-0.1479537847348403,-0.3298028045204712,0.8257812058386205,1.53473773675347,0.1647268204147881,0.0274502250565372,1.537055318796749,0.3089212930178679,-0.0682993377444403,-0.1202838286965091,0.4604878707166828,-0.08669390626594772,-0.459535740608698,-0.5507794318955817,0.03791373707094074,792.1611721611722,798.6080586080586,810.6959706959707,799.0109890109891,813.1135531135532,689.4139194139194,-0.233704,0.043213,0.969421,0.441132,-2.048645,0.343933,1,1,1,1,1,92.000000
2025-03-25 17:37:50.375,0.561294571757857,0.1326964236937227,-0.02812764026603037,0.4208377113323802,0.6763092676354645,-0.1479537847348403,-0.3298028045204712,0.8257812058386205,1.53473773675347,0.1647268204147881,0.0274502250565372,1.537055318796749,0.3089212930178679,-0.0682993377444403,-0.1202838286965091,0.4604878707166828,-0.08669390626594772,-0.459535740608698,-0.5507794318955817,0.03791373707094074,807.4725274725275,801.4285714285714,807.8754578754579,801.8315018315019,863.4798534798535,802.6373626373627,-0.233704,0.043213,0.969421,0.441132,-2.048645,0.343933,1,1,1,1,1,92.000000
2025-03-25 17:37:50.376,0.561294571757857,0.1326964236937227,-0.02812764026603037,0.4208377113323802,0.6763092676354645,-0.1479537847348403,-0.3298028045204712,0.8257812058386205,1.53473773675347,0.1647268204147881,0.0274502250565372,1.537055318796749,0.3089212930178679,-0.0682993377444403,-0.1202838286965091,0.4604878707166828,-0.08669390626594772,-0.459535740608698,-0.5507794318955817,0.03791373707094074,816.7399267399268,803.4432234432235,805.0549450549451,803.8461538461539,889.2673992673992,1126.593406593407,-0.233704,0.043213,0.969421,0.441132,-2.048645,0.343933,1,1,1,1,1,92.000000
2025-03-25 17:37:50.376,0.561294571757857,0.1326964236937227,-0.02812764026603037,0.4208377113323802,0.6763092676354645,-0.1479537847348403,-0.3298028045204712,0.8257812058386205,1.53473773675347,0.1647268204147881,0.0274502250565372,1.537055318796749,0.3089212930178679,-0.0682993377444403,-0.1202838286965091,0.4604878707166828,-0.08669390626594772,-0.459535740608698,-0.5507794318955817,0.03791373707094074,803.4432234432235,805.0549450549451,806.2637362637363,802.6373626373627,824.7985347985348,1153.589743589744,-0.233704,0.043213,0.969421,0.441132,-2.048645,0.343933,1,1,1,1,1,92.000000
2025-03-25 17:37:50.377,0.561294571757857,0.1326964236937227,-0.02812764026603037,0.4208377113323802,0.6763092676354645,-0.1479537847348403,-0.3298028045204712,0.8257812058386205,1.53473773675347,0.1647268204147881,0.0274502250565372,1.537055318796749,0.3089212930178679,-0.0682993377444403,-0.1202838286965091,0.4604878707166828,-0.08669390626594772,-0.459535740608698,-0.5507794318955817,0.03791373707094074,785.3113553113553,800.6227106227107,807.8754578754579,799.4139194139194,797.8021978021978,827.6190476190476,-0.233704,0.043213,0.969421,0.441132,-2.048645,0.343933,1,1,1,1,1,92.000000
2025-03-25 17:37:50.377,0.561294571757857,0.1326964236937227,-0.02812764026603037,0.4208377113323802,0.6763092676354645,-0.1479537847348403,-0.3298028045204712,0.8257812058386205,1.53473773675347,0.1647268204147881,0.0274502250565372,1.537055318796749,0.3089212930178679,-0.0682993377444403,-0.1202838286965091,0.4604878707166828,-0.08669390626594772,-0.459535740608698,-0.5507794318955817,0.03791373707094074,796.1904761904763,797.3992673992674,810.6959706959707,801.4285714285714,792.967032967033,639.8534798534798,-0.233704,0.043213,0.969421,0.441132,-2.048645,0.343933,1,1,1,1,1,92.000000
2025-03-25 17:37:50.377,0.561294571757857,0.1326964236937227,-0.02812764026603037,0.4208377113323802,0.6763092676354645,-0.1479537847348403,-0.3298028045204712,0.8257812058386205,1.53473773675347,0.1647268204147881,0.0274502250565372,1.537055318796749,0.3089212930178679,-0.0682993377444403,-0.1202838286965091,0.4604878707166828,-0.08669390626594772,-0.459535740608698,-0.5507794318955817,0.03791373707094074,812.7106227106227,803.040293040293,809.4871794871796,805.8608058608058,817.1428571428571,657.985347985348,-0.233704,0.043213,0.969421,0.441132,-2.048645,0.343933,1,1,1,1,1,92.000000
2025-03-25 17:37:50.378,0.561294571757857,0.1326964236937227,-0.02812764026603037,0.4208377113323802,0.6763092676354645,-0.1479537847348403,-0.3298028045204712,0.8257812058386205,1.53473773675347,0.1647268204147881,0.0274502250565372,1.537055318796749,0.3089212930178679,-0.0682993377444403,-0.1202838286965091,0.4604878707166828,-0.08669390626594772,-0.459535740608698,-0.5507794318955817,0.03791373707094074,800.6227106227107,802.6373626373627,808.2783882783883,808.6813186813187,830.8424908424909,730.9157509157509,-0.233704,0.043213,0.969421,0.441132,-2.048645,0.343933,1,1,1,1,1,92.000000
2025-03-25 17:37:50.378,0.561294571757857,0.1326964236937227,-0.02812764026603037,0.4208377113323802,0.6763092676354645,-0.1479537847348403,-0.3298028045204712,0.8257812058386205,1.53473773675347,0.1647268204147881,0.0274502250565372,1.537055318796749,0.3089212930178679,-0.0682993377444403,-0.1202838286965091,0.4604878707166828,-0.08669390626594772,-0.459535740608698,-0.5507794318955817,0.03791373707094074,775.2380952380953,795.7875457875458,805.4578754578755,802.6373626373627,811.5018315018315,722.8571428571429,-0.233704,0.043213,0.969421,0.441132,-2.048645,0.343933,1,1,1,1,1,92.000000
2025-03-25 17:37:50.379,0.561294571757857,0.1326964236937227,-0.02812764026603037,0.4208377113323802,0.6763092676354645,-0.1479537847348403,-0.3298028045204712,0.8257812058386205,1.53473773675347,0.1647268204147881,0.0274502250565372,1.537055318796749,0.3089212930178679,-0.0682993377444403,-0.1202838286965091,0.4604878707166828,-0.08669390626594772,-0.459535740608698,-0.5507794318955817,0.03791373707094074,782.4908424908425,798.6080586080586,805.8608058608058,803.8461538461539,826.4102564102565,680.5494505494506,-0.232971,0.042908,0.967834,0.328979,-0.971985,-0.119629,1,1,1,1,1,92.000000
2025-03-25 17:37:50.379,0.561294571757857,0.1326964236937227,-0.02812764026603037,0.4208377113323802,0.6763092676354645,-0.1479537847348403,-0.3298028045204712,0.8257812058386205,1.53473773675347,0.1647268204147881,0.0274502250565372,1.537055318796749,0.3089212930178679,-0.0682993377444403,-0.1202838286965091,0.4604878707166828,-0.08669390626594772,-0.459535740608698,-0.5507794318955817,0.03791373707094074,806.2637362637363,803.8461538461539,814.3223443223443,817.948717948718,805.0549450549451,632.1978021978022,-0.232971,0.042908,0.967834,0.328979,-0.971985,-0.119629,1,1,1,1,1,92.000000
2025-03-25 17:37:50.379,0.561294571757857,0.1326964236937227,-0.02812764026603037,0.4208377113323802,0.6763092676354645,-0.1479537847348403,-0.3298028045204712,0.8257812058386205,1.53473773675347,0.1647268204147881,0.0274502250565372,1.537055318796749,0.3089212930178679,-0.0682993377444403,-0.1202838286965091,0.4604878707166828,-0.08669390626594772,-0.459535740608698,-0.5507794318955817,0.03791373707094074,803.4432234432235,806.2637362637363,812.3076923076924,812.3076923076924,805.4578754578755,919.4871794871796,-0.232971,0.042908,0.967834,0.328979,-0.971985,-0.119629,1,1,1,1,1,92.000000
2025-03-25 17:37:50.380,0.561294571757857,0.1326964236937227,-0.02812764026603037,0.4208377113323802,0.6763092676354645,-0.1479537847348403,-0.3298028045204712,0.8257812058386205,1.53473773675347,0.1647268204147881,0.0274502250565372,1.537055318796749,0.3089212930178679,-0.0682993377444403,-0.1202838286965091,0.4604878707166828,-0.08669390626594772,-0.459535740608698,-0.5507794318955817,0.03791373707094074,778.0586080586081,801.8315018315019,808.6813186813187,800.6227106227107,808.6813186813187,867.9120879120879,-0.232971,0.042908,0.967834,0.328979,-0.971985,-0.119629,1,1,1,1,1,92.000000
2025-03-25 17:37:50.380,0.561294571757857,0.1326964236937227,-0.02812764026603037,0.4208377113323802,0.6763092676354645,-0.1479537847348403,-0.3298028045204712,0.8257812058386205,1.53473773675347,0.1647268204147881,0.0274502250565372,1.537055318796749,0.3089212930178679,-0.0682993377444403,-0.1202838286965091,0.4604878707166828,-0.08669390626594772,-0.459535740608698,-0.5507794318955817,0.03791373707094074,772.4175824175825,800.2197802197802,807.8754578754579,810.2930402930403,799.0109890109891,731.7216117216118,-0.232971,0.042908,0.967834,0.328979,-0.971985,-0.119629,1,1,1,1,1,92.000000
2025-03-25 17:37:50.381,0.561294571757857,0.1326964236937227,-0.02812764026603037,0.4208377113323802,0.6763092676354645,-0.1479537847348403,-0.3298028045204712,0.8257812058386205,1.53473773675347,0.1647268204147881,0.0274502250565372,1.537055318796749,0.3089212930178679,-0.0682993377444403,-0.1202838286965091,0.4604878707166828,-0.08669390626594772,-0.459535740608698,-0.5507794318955817,0.03791373707094074,798.2051282051282,807.0695970695971,806.2637362637363,811.0989010989011,747.032967032967,859.047619047619,-0.232971,0.042908,0.967834,0.328979,-0.971985,-0.119629,1,1,1,1,1,92.000000
2025-03-25 17:37:50.381,0.561294571757857,0.1326964236937227,-0.02812764026603037,0.4208377113323802,0.6763092676354645,-0.1479537847348403,-0.3298028045204712,0.8257812058386205,1.53473773675347,0.1647268204147881,0.0274502250565372,1.537055318796749,0.3089212930178679,-0.0682993377444403,-0.1202838286965091,0.4604878707166828,-0.08669390626594772,-0.459535740608698,-0.5507794318955817,0.03791373707094074,812.7106227106227,809.4871794871796,806.2637362637363,808.2783882783883,732.1245421245421,928.3516483516484,-0.232971,0.042908,0.967834,0.328979,-0.971985,-0.119629,1,1,1,1,1,92.000000
2025-03-25 17:37:50.381,0.561294571757857,0.1326964236937227,-0.02812764026603037,0.4208377113323802,0.6763092676354645,-0.1479537847348403,-0.3298028045204712,0.8257812058386205,1.53473773675347,0.1647268204147881,0.0274502250565372,1.537055318796749,0.3089212930178679,-0.0682993377444403,-0.1202838286965091,0.4604878707166828,-0.08669390626594772,-0.459535740608698,-0.5507794318955817,0.03791373707094074,799.4139194139194,807.0695970695971,805.0549450549451,811.0989010989011,786.5201465201466,878.3882783882784,-0.232971,0.042908,0.967834,0.328979,-0.971985,-0.119629,1,1,1,1,1,92.000000
2025-03-25 17:37:50.382,0.561294571757857,0.1326964236937227,-0.02812764026603037,0.4208377113323802,0.6763092676354645,-0.1479537847348403,-0.3298028045204712,0.8257812058386205,1.53473773675347,0.1647268204147881,0.0274502250565372,1.537055318796749,0.3089212930178679,-0.0682993377444403,-0.1202838286965091,0.4604878707166828,-0.08669390626594772,-0.459535740608698,-0.5507794318955817,0.03791373707094074,780.8791208791209,807.0695970695971,801.8315018315019,796.996336996337,788.9377289377289,648.7179487179487,-0.232971,0.042908,0.967834,0.328979,-0.971985,-0.119629,1,1,1,1,1,92.000000
2025-03-25 17:37:50.382,0.561294571757857,0.1326964236937227,-0.02812764026603037,0.4208377113323802,0.6763092676354645,-0.1479537847348403,-0.3298028045204712,0.8257812058386205,1.53473773675347,0.1647268204147881,0.0274502250565372,1.537055318796749,0.3089212930178679,-0.0682993377444403,-0.1202838286965091,0.4604878707166828,-0.08669390626594772,-0.459535740608698,-0.5507794318955817,0.03791373707094074,798.2051282051282,807.8754578754579,803.4432234432235,803.8461538461539,705.934065934066,537.5091575091575,-0.232971,0.042908,0.967834,0.328979,-0.971985,-0.119629,1,1,1,1,1,92.000000
2025-03-25 17:37:50.383,0.561294571757857,0.1326964236937227,-0.02812764026603037,0.4208377113323802,0.6763092676354645,-0.1479537847348403,-0.3298028045204712,0.8257812058386205,1.53473773675347,0.1647268204147881,0.0274502250565372,1.537055318796749,0.3089212930178679,-0.0682993377444403,-0.1202838286965091,0.4604878707166828,-0.08669390626594772,-0.459535740608698,-0.5507794318955817,0.03791373707094074,818.7545787545788,804.2490842490843,802.6373626373627,809.8901098901099,717.6190476190476,652.7472527472528,-0.232971,0.042908,0.967834,0.328979,-0.971985,-0.119629,1,1,1,1,1,92.000000
2025-03-25 17:37:50.383,0.5762933108862142,0.07382930250932371,0.05603136405579082,0.4117281561945342,0.715401804324823,-0.1710088989089134,-0.3381243245809549,0.8307311643249713,1.535737705958133,0.1323457433389889,-0.003473930845253817,1.525404821909975,0.3076679510354615,-0.06419511834082403,-0.1105548416422122,0.4673987874315544,-0.1044433653812082,-0.474897654341855,-0.5723238534931404,0.04694239233471034,808.2783882783883,803.040293040293,798.6080586080586,799.0109890109891,786.9230769230769,711.5750915750916,-0.232971,0.042908,0.967834,0.328979,-0.971985,-0.119629,1,1,1,1,1,92.000000
2025-03-25 17:37:50.385,0.5762933108862142,0.07382930250932371,0.05603136405579082,0.4117281561945342,0.715401804324823,-0.1710088989089134,-0.3381243245809549,0.8307311643249713,1.535737705958133,0.1323457433389889,-0.003473930845253817,1.525404821909975,0.3076679510354615,-0.06419511834082403,-0.1105548416422122,0.4673987874315544,-0.1044433653812082,-0.474897654341855,-0.5723238534931404,0.04694239233471034,785.7142857142858,799.4139194139194,809.0842490842491,796.5934065934066,759.5238095238095,666.8498168498169,-0.236145,0.043457,0.968994,-0.246735,-0.239258,-0.515900,1,1,1,1,1,92.000000
2025-03-25 17:37:50.385,0.5762933108862142,0.07382930250932371,0.05603136405579082,0.4117281561945342,0.715401804324823,-0.1710088989089134,-0.3381243245809549,0.8307311643249713,1.535737705958133,0.1323457433389889,-0.003473930845253817,1.525404821909975,0.3076679510354615,-0.06419511834082403,-0.1105548416422122,0.4673987874315544,-0.1044433653812082,-0.474897654341855,-0.5723238534931404,0.04694239233471034,799.4139194139194,801.025641025641,813.1135531135532,808.6813186813187,767.5824175824176,788.5347985347986,-0.236145,0.043457,0.968994,-0.246735,-0.239258,-0.515900,1,1,1,1,1,92.000000
2025-03-25 17:37:50.386,0.5762933108862142,0.07382930250932371,0.05603136405579082,0.4117281561945342,0.715401804324823,-0.1710088989089134,-0.3381243245809549,0.8307311643249713,1.535737705958133,0.1323457433389889,-0.003473930845253817,1.525404821909975,0.3076679510354615,-0.06419511834082403,-0.1105548416422122,0.4673987874315544,-0.1044433653812082,-0.474897654341855,-0.5723238534931404,0.04694239233471034,826.007326007326,805.4578754578755,804.6520146520147,816.7399267399268,848.1684981684982,819.5604395604396,-0.236145,0.043457,0.968994,-0.246735,-0.239258,-0.515900,1,1,1,1,1,92.000000
2025-03-25 17:37:50.386,0.5762933108862142,0.07382930250932371,0.05603136405579082,0.4117281561945342,0.715401804324823,-0.1710088989089134,-0.3381243245809549,0.8307311643249713,1.535737705958133,0.1323457433389889,-0.003473930845253817,1.525404821909975,0.3076679510354615,-0.06419511834082403,-0.1105548416422122,0.4673987874315544,-0.1044433653812082,-0.474897654341855,-0.5723238534931404,0.04694239233471034,814.7252747252747,803.4432234432235,799.8168498168499,809.8901098901099,815.934065934066,720.0366300366301,-0.236145,0.043457,0.968994,-0.246735,-0.239258,-0.515900,1,1,1,1,1,92.000000
2025-03-25 17:37:50.386,0.5762933108862142,0.07382930250932371,0.05603136405579082,0.4117281561945342,0.715401804324823,-0.1710088989089134,-0.3381243245809549,0.8307311643249713,1.535737705958133,0.1323457433389889,-0.003473930845253817,1.525404821909975,0.3076679510354615,-0.06419511834082403,-0.1105548416422122,0.4673987874315544,-0.1044433653812082,-0.474897654341855,-0.5723238534931404,0.04694239233471034,782.893772893773,796.996336996337,799.8168498168499,795.3846153846154,780.8791208791209,749.047619047619,-0.236145,0.043457,0.968994,-0.246735,-0.239258,-0.515900,1,1,1,1,1,92.000000
2025-03-25 17:37:50.387,0.5762933108862142,0.07382930250932371,0.05603136405579082,0.4117281561945342,0.715401804324823,-0.1710088989089134,-0.3381243245809549,0.8307311643249713,1.535737705958133,0.1323457433389889,-0.003473930845253817,1.525404821909975,0.3076679510354615,-0.06419511834082403,-0.1105548416422122,0.4673987874315544,-0.1044433653812082,-0.474897654341855,-0.5723238534931404,0.04694239233471034,776.4468864468864,793.3699633699634,801.8315018315019,796.1904761904763,786.5201465201466,805.0549450549451,-0.236145,0.043457,0.968994,-0.246735,-0.239258,-0.515900,1,1,1,1,1,92.000000
2025-03-25 17:37:50.387,0.5762933108862142,0.07382930250932371,0.05603136405579082,0.4117281561945342,0.715401804324823,-0.1710088989089134,-0.3381243245809549,0.8307311643249713,1.535737705958133,0.1323457433389889,-0.003473930845253817,1.525404821909975,0.3076679510354615,-0.06419511834082403,-0.1105548416422122,0.4673987874315544,-0.1044433653812082,-0.474897654341855,-0.5723238534931404,0.04694239233471034,792.5641025641025,794.1758241758242,803.4432234432235,809.8901098901099,809.8901098901099,917.0695970695971,-0.236145,0.043457,0.968994,-0.246735,-0.239258,-0.515900,1,1,1,1,1,92.000000
2025-03-25 17:37:50.387,0.5762933108862142,0.07382930250932371,0.05603136405579082,0.4117281561945342,0.715401804324823,-0.1710088989089134,-0.3381243245809549,0.8307311643249713,1.535737705958133,0.1323457433389889,-0.003473930845253817,1.525404821909975,0.3076679510354615,-0.06419511834082403,-0.1105548416422122,0.4673987874315544,-0.1044433653812082,-0.474897654341855,-0.5723238534931404,0.04694239233471034,795.7875457875458,791.7582417582418,805.4578754578755,809.4871794871796,829.2307692307693,956.959706959707,-0.236145,0.043457,0.968994,-0.246735,-0.239258,-0.515900,1,1,1,1,1,92.000000
2025-03-25 17:37:50.388,0.5762933108862142,0.07382930250932371,0.05603136405579082,0.4117281561945342,0.715401804324823,-0.1710088989089134,-0.3381243245809549,0.8307311643249713,1.535737705958133,0.1323457433389889,-0.003473930845253817,1.525404821909975,0.3076679510354615,-0.06419511834082403,-0.1105548416422122,0.4673987874315544,-0.1044433653812082,-0.474897654341855,-0.5723238534931404,0.04694239233471034,776.0439560439561,796.996336996337,807.4725274725275,797.8021978021978,805.4578754578755,709.5604395604396,-0.236145,0.043457,0.968994,-0.246735,-0.239258,-0.515900,1,1,1,1,1,92.000000
2025-03-25 17:37:50.388,0.5762933108862142,0.07382930250932371,0.05603136405579082,0.4117281561945342,0.715401804324823,-0.1710088989089134,-0.3381243245809549,0.8307311643249713,1.535737705958133,0.1323457433389889,-0.003473930845253817,1.525404821909975,0.3076679510354615,-0.06419511834082403,-0.1105548416422122,0.4673987874315544,-0.1044433653812082,-0.474897654341855,-0.5723238534931404,0.04694239233471034,770.4029304029305,801.025641025641,808.6813186813187,789.7435897435897,823.1868131868132,588.2783882783883,-0.236145,0.043457,0.968994,-0.246735,-0.239258,-0.515900,1,1,1,1,1,92.000000
2025-03-25 17:37:50.389,0.5762933108862142,0.07382930250932371,0.05603136405579082,0.4117281561945342,0.715401804324823,-0.1710088989089134,-0.3381243245809549,0.8307311643249713,1.535737705958133,0.1323457433389889,-0.003473930845253817,1.525404821909975,0.3076679510354615,-0.06419511834082403,-0.1105548416422122,0.4673987874315544,-0.1044433653812082,-0.474897654341855,-0.5723238534931404,0.04694239233471034,792.5641025641025,795.3846153846154,806.6666666666667,804.6520146520147,840.5128205128206,639.4505494505495,-0.236145,0.043457,0.968994,-0.246735,-0.239258,-0.515900,1,1,1,1,1,92.000000
2025-03-25 17:37:50.389,0.5762933108862142,0.07382930250932371,0.05603136405579082,0.4117281561945342,0.715401804324823,-0.1710088989089134,-0.3381243245809549,0.8307311643249713,1.535737705958133,0.1323457433389889,-0.003473930845253817,1.525404821909975,0.3076679510354615,-0.06419511834082403,-0.1105548416422122,0.4673987874315544,-0.1044433653812082,-0.474897654341855,-0.5723238534931404,0.04694239233471034,798.2051282051282,796.996336996337,803.040293040293,798.2051282051282,864.6886446886447,802.6373626373627,-0.236145,0.043457,0.968994,-0.246735,-0.239258,-0.515900,1,1,1,1,1,92.000000
2025-03-25 17:37:50.389,0.5762933108862142,0.07382930250932371,0.05603136405579082,0.4117281561945342,0.715401804324823,-0.1710088989089134,-0.3381243245809549,0.8307311643249713,1.535737705958133,0.1323457433389889,-0.003473930845253817,1.525404821909975,0.3076679510354615,-0.06419511834082403,-0.1105548416422122,0.4673987874315544,-0.1044433653812082,-0.474897654341855,-0.5723238534931404,0.04694239233471034,778.4615384615385,802.2344322344322,805.0549450549451,788.1318681318681,908.2051282051282,838.4981684981685,-0.236145,0.043457,0.968994,-0.246735,-0.239258,-0.515900,1,1,1,1,1,92.000000
2025-03-25 17:37:50.390,0.5762933108862142,0.07382930250932371,0.05603136405579082,0.4117281561945342,0.715401804324823,-0.1710088989089134,-0.3381243245809549,0.8307311643249713,1.535737705958133,0.1323457433389889,-0.003473930845253817,1.525404821909975,0.3076679510354615,-0.06419511834082403,-0.1105548416422122,0.4673987874315544,-0.1044433653812082,-0.474897654341855,-0.5723238534931404,0.04694239233471034,764.7619047619048,803.4432234432235,806.6666666666667,791.7582417582418,882.4175824175825,721.2454212454213,-0.236145,0.043457,0.968994,-0.246735,-0.239258,-0.515900,1,1,1,1,1,92.000000
2025-03-25 17:37:50.390,0.5762933108862142,0.07382930250932371,0.05603136405579082,0.4117281561945342,0.715401804324823,-0.1710088989089134,-0.3381243245809549,0.8307311643249713,1.535737705958133,0.1323457433389889,-0.003473930845253817,1.525404821909975,0.3076679510354615,-0.06419511834082403,-0.1105548416422122,0.4673987874315544,-0.1044433653812082,-0.474897654341855,-0.5723238534931404,0.04694239233471034,779.6703296703297,800.6227106227107,807.8754578754579,803.4432234432235,795.3846153846154,906.5934065934066,-0.236145,0.043457,0.968994,-0.246735,-0.239258,-0.515900,1,1,1,1,1,92.000000
2025-03-25 17:37:50.391,0.5762933108862142,0.07382930250932371,0.05603136405579082,0.4117281561945342,0.715401804324823,-0.1710088989089134,-0.3381243245809549,0.8307311643249713,1.535737705958133,0.1323457433389889,-0.003473930845253817,1.525404821909975,0.3076679510354615,-0.06419511834082403,-0.1105548416422122,0.4673987874315544,-0.1044433653812082,-0.474897654341855,-0.5723238534931404,0.04694239233471034,797.3992673992674,803.4432234432235,809.0842490842491,817.948717948718,778.8644688644689,903.7728937728938,-0.236145,0.043457,0.968994,-0.246735,-0.239258,-0.515900,1,1,1,1,1,92.000000
2025-03-25 17:37:50.391,0.5762933108862142,0.07382930250932371,0.05603136405579082,0.4117281561945342,0.715401804324823,-0.1710088989089134,-0.3381243245809549,0.8307311643249713,1.535737705958133,0.1323457433389889,-0.003473930845253817,1.525404821909975,0.3076679510354615,-0.06419511834082403,-0.1105548416422122,0.4673987874315544,-0.1044433653812082,-0.474897654341855,-0.5723238534931404,0.04694239233471034,784.5054945054945,801.8315018315019,806.6666666666667,805.8608058608058,772.014652014652,792.1611721611722,-0.236145,0.043457,0.968994,-0.246735,-0.239258,-0.515900,1,1,1,1,1,92.000000
2025-03-25 17:37:50.391,0.5762933108862142,0.07382930250932371,0.05603136405579082,0.4117281561945342,0.715401804324823,-0.1710088989089134,-0.3381243245809549,0.8307311643249713,1.535737705958133,0.1323457433389889,-0.003473930845253817,1.525404821909975,0.3076679510354615,-0.06419511834082403,-0.1105548416422122,0.4673987874315544,-0.1044433653812082,-0.474897654341855,-0.5723238534931404,0.04694239233471034,770,801.025641025641,805.4578754578755,797.3992673992674,759.1208791208792,879.5970695970697,-0.236145,0.043457,0.968994,-0.246735,-0.239258,-0.515900,1,1,1,1,1,92.000000
2025-03-25 17:37:50.392,0.5762933108862142,0.07382930250932371,0.05603136405579082,0.4117281561945342,0.715401804324823,-0.1710088989089134,-0.3381243245809549,0.8307311643249713,1.535737705958133,0.1323457433389889,-0.003473930845253817,1.525404821909975,0.3076679510354615,-0.06419511834082403,-0.1105548416422122,0.4673987874315544,-0.1044433653812082,-0.474897654341855,-0.5723238534931404,0.04694239233471034,784.5054945054945,802.2344322344322,803.040293040293,798.6080586080586,784.1025641025641,975.8974358974359,-0.236145,0.043457,0.968994,-0.246735,-0.239258,-0.515900,1,1,1,1,1,92.000000
2025-03-25 17:37:50.392,0.5762933108862142,0.07382930250932371,0.05603136405579082,0.4117281561945342,0.715401804324823,-0.1710088989089134,-0.3381243245809549,0.8307311643249713,1.535737705958133,0.1323457433389889,-0.003473930845253817,1.525404821909975,0.3076679510354615,-0.06419511834082403,-0.1105548416422122,0.4673987874315544,-0.1044433653812082,-0.474897654341855,-0.5723238534931404,0.04694239233471034,803.4432234432235,806.2637362637363,803.040293040293,807.8754578754579,770.4029304029305,1002.490842490843,-0.236145,0.043457,0.968994,-0.246735,-0.239258,-0.515900,1,1,1,1,1,92.000000
2025-03-25 17:37:50.393,0.5762933108862142,0.07382930250932371,0.05603136405579082,0.4117281561945342,0.715401804324823,-0.1710088989089134,-0.3381243245809549,0.8307311643249713,1.535737705958133,0.1323457433389889,-0.003473930845253817,1.525404821909975,0.3076679510354615,-0.06419511834082403,-0.1105548416422122,0.4673987874315544,-0.1044433653812082,-0.474897654341855,-0.5723238534931404,0.04694239233471034,806.2637362637363,811.5018315018315,800.2197802197802,805.4578754578755,735.7509157509157,671.6849816849817,-0.236145,0.043457,0.968994,-0.246735,-0.239258,-0.515900,1,1,1,1,1,92.000000
2025-03-25 17:37:50.393,0.5762933108862142,0.07382930250932371,0.05603136405579082,0.4117281561945342,0.715401804324823,-0.1710088989089134,-0.3381243245809549,0.8307311643249713,1.535737705958133,0.1323457433389889,-0.003473930845253817,1.525404821909975,0.3076679510354615,-0.06419511834082403,-0.1105548416422122,0.4673987874315544,-0.1044433653812082,-0.474897654341855,-0.5723238534931404,0.04694239233471034,786.1172161172161,807.4725274725275,798.2051282051282,793.3699633699634,718.8278388278388,550.8058608058608,-0.236145,0.043457,0.968994,-0.246735,-0.239258,-0.515900,1,1,1,1,1,92.000000
2025-03-25 17:37:50.393,0.5762933108862142,0.07382930250932371,0.05603136405579082,0.4117281561945342,0.715401804324823,-0.1710088989089134,-0.3381243245809549,0.8307311643249713,1.535737705958133,0.1323457433389889,-0.003473930845253817,1.525404821909975,0.3076679510354615,-0.06419511834082403,-0.1105548416422122,0.4673987874315544,-0.1044433653812082,-0.474897654341855,-0.5723238534931404,0.04694239233471034,781.6849816849817,799.4139194139194,796.996336996337,792.967032967033,721.2454212454213,578.2051282051282,-0.236145,0.043457,0.968994,-0.246735,-0.239258,-0.515900,1,1,1,1,1,92.000000
2025-03-25 17:37:50.394,0.5762933108862142,0.07382930250932371,0.05603136405579082,0.4117281561945342,0.715401804324823,-0.1710088989089134,-0.3381243245809549,0.8307311643249713,1.535737705958133,0.1323457433389889,-0.003473930845253817,1.525404821909975,0.3076679510354615,-0.06419511834082403,-0.1105548416422122,0.4673987874315544,-0.1044433653812082,-0.474897654341855,-0.5723238534931404,0.04694239233471034,810.2930402930403,798.6080586080586,798.2051282051282,805.4578754578755,784.1025641025641,696.6666666666667,-0.236145,0.043457,0.968994,-0.246735,-0.239258,-0.515900,1,1,1,1,1,92.000000
2025-03-25 17:37:50.395,0.5762933108862142,0.07382930250932371,0.05603136405579082,0.4117281561945342,0.715401804324823,-0.1710088989089134,-0.3381243245809549,0.8307311643249713,1.535737705958133,0.1323457433389889,-0.003473930845253817,1.525404821909975,0.3076679510354615,-0.06419511834082403,-0.1105548416422122,0.4673987874315544,-0.1044433653812082,-0.474897654341855,-0.5723238534931404,0.04694239233471034,818.3516483516484,797.8021978021978,800.2197802197802,805.0549450549451,782.0879120879121,701.9047619047619,-0.237305,0.035400,0.964355,0.171967,-0.134583,-0.411224,1,1,1,1,1,92.000000
2025-03-25 17:37:50.395,0.5829021968612628,0.01559885447153496,0.1378906607023083,0.4067360548171178,0.7648463098440698,-0.2127996151097483,-0.3340377282482992,0.8567631572450932,1.535456946463894,0.1206296663110414,-0.0316684243582698,1.525404821909975,0.3122351183761882,-0.05430902925305735,-0.1054260009376255,0.4698282965921021,-0.1285295810515633,-0.4913476184587709,-0.5967846498122682,0.04327784439674161,800.2197802197802,799.4139194139194,799.0109890109891,794.1758241758242,769.1941391941392,707.5457875457876,-0.237305,0.035400,0.964355,0.171967,-0.134583,-0.411224,1,1,1,1,1,92.000000
2025-03-25 17:37:50.396,0.5829021968612628,0.01559885447153496,0.1378906607023083,0.4067360548171178,0.7648463098440698,-0.2127996151097483,-0.3340377282482992,0.8567631572450932,1.535456946463894,0.1206296663110414,-0.0316684243582698,1.525404821909975,0.3122351183761882,-0.05430902925305735,-0.1054260009376255,0.4698282965921021,-0.1285295810515633,-0.4913476184587709,-0.5967846498122682,0.04327784439674161,790.952380952381,801.8315018315019,799.8168498168499,789.3406593406594,789.7435897435897,730.9157509157509,-0.237305,0.035400,0.964355,0.171967,-0.134583,-0.411224,1,1,1,1,1,92.000000
2025-03-25 17:37:50.396,0.5829021968612628,0.01559885447153496,0.1378906607023083,0.4067360548171178,0.7648463098440698,-0.2127996151097483,-0.3340377282482992,0.8567631572450932,1.535456946463894,0.1206296663110414,-0.0316684243582698,1.525404821909975,0.3122351183761882,-0.05430902925305735,-0.1054260009376255,0.4698282965921021,-0.1285295810515633,-0.4913476184587709,-0.5967846498122682,0.04327784439674161,805.4578754578755,801.025641025641,805.4578754578755,797.3992673992674,766.3736263736264,683.3699633699634,-0.237305,0.035400,0.964355,0.171967,-0.134583,-0.411224,1,1,1,1,1,92.000000
2025-03-25 17:37:50.397,0.5829021968612628,0.01559885447153496,0.1378906607023083,0.4067360548171178,0.7648463098440698,-0.2127996151097483,-0.3340377282482992,0.8567631572450932,1.535456946463894,0.1206296663110414,-0.0316684243582698,1.525404821909975,0.3122351183761882,-0.05430902925305735,-0.1054260009376255,0.4698282965921021,-0.1285295810515633,-0.4913476184587709,-0.5967846498122682,0.04327784439674161,811.0989010989011,802.2344322344322,809.8901098901099,806.6666666666667,761.5384615384615,745.0183150183151,-0.237305,0.035400,0.964355,0.171967,-0.134583,-0.411224,1,1,1,1,1,92.000000
2025-03-25 17:37:50.397,0.5829021968612628,0.01559885447153496,0.1378906607023083,0.4067360548171178,0.7648463098440698,-0.2127996151097483,-0.3340377282482992,0.8567631572450932,1.535456946463894,0.1206296663110414,-0.0316684243582698,1.525404821909975,0.3122351183761882,-0.05430902925305735,-0.1054260009376255,0.4698282965921021,-0.1285295810515633,-0.4913476184587709,-0.5967846498122682,0.04327784439674161,791.7582417582418,802.6373626373627,810.2930402930403,802.2344322344322,785.3113553113553,861.8681318681319,-0.237305,0.035400,0.964355,0.171967,-0.134583,-0.411224,1,1,1,1,1,92.000000
2025-03-25 17:37:50.397,0.5829021968612628,0.01559885447153496,0.1378906607023083,0.4067360548171178,0.7648463098440698,-0.2127996151097483,-0.3340377282482992,0.8567631572450932,1.535456946463894,0.1206296663110414,-0.0316684243582698,1.525404821909975,0.3122351183761882,-0.05430902925305735,-0.1054260009376255,0.4698282965921021,-0.1285295810515633,-0.4913476184587709,-0.5967846498122682,0.04327784439674161,773.6263736263736,798.2051282051282,811.9047619047619,793.3699633699634,777.6556776556777,921.0989010989011,-0.237305,0.035400,0.964355,0.171967,-0.134583,-0.411224,1,1,1,1,1,92.000000
2025-03-25 17:37:50.398,0.5829021968612628,0.01559885447153496,0.1378906607023083,0.4067360548171178,0.7648463098440698,-0.2127996151097483,-0.3340377282482992,0.8567631572450932,1.535456946463894,0.1206296663110414,-0.0316684243582698,1.525404821909975,0.3122351183761882,-0.05430902925305735,-0.1054260009376255,0.4698282965921021,-0.1285295810515633,-0.4913476184587709,-0.5967846498122682,0.04327784439674161,785.7142857142858,801.8315018315019,806.6666666666667,797.8021978021978,761.941391941392,915.4578754578755,-0.237305,0.035400,0.964355,0.171967,-0.134583,-0.411224,1,1,1,1,1,92.000000
2025-03-25 17:37:50.398,0.5829021968612628,0.01559885447153496,0.1378906607023083,0.4067360548171178,0.7648463098440698,-0.2127996151097483,-0.3340377282482992,0.8567631572450932,1.535456946463894,0.1206296663110414,-0.0316684243582698,1.525404821909975,0.3122351183761882,-0.05430902925305735,-0.1054260009376255,0.4698282965921021,-0.1285295810515633,-0.4913476184587709,-0.5967846498122682,0.04327784439674161,801.4285714285714,806.2637362637363,804.2490842490843,805.0549450549451,770.8058608058608,907.8021978021978,-0.237305,0.035400,0.964355,0.171967,-0.134583,-0.411224,1,1,1,1,1,92.000000
2025-03-25 17:37:50.398,0.5829021968612628,0.01559885447153496,0.1378906607023083,0.4067360548171178,0.7648463098440698,-0.2127996151097483,-0.3340377282482992,0.8567631572450932,1.535456946463894,0.1206296663110414,-0.0316684243582698,1.525404821909975,0.3122351183761882,-0.05430902925305735,-0.1054260009376255,0.4698282965921021,-0.1285295810515633,-0.4913476184587709,-0.5967846498122682,0.04327784439674161,786.1172161172161,799.0109890109891,807.0695970695971,797.3992673992674,829.6336996336996,718.8278388278388,-0.237305,0.035400,0.964355,0.171967,-0.134583,-0.411224,1,1,1,1,1,92.000000
2025-03-25 17:37:50.399,0.5829021968612628,0.01559885447153496,0.1378906607023083,0.4067360548171178,0.7648463098440698,-0.2127996151097483,-0.3340377282482992,0.8567631572450932,1.535456946463894,0.1206296663110414,-0.0316684243582698,1.525404821909975,0.3122351183761882,-0.05430902925305735,-0.1054260009376255,0.4698282965921021,-0.1285295810515633,-0.4913476184587709,-0.5967846498122682,0.04327784439674161,759.1208791208792,795.3846153846154,807.4725274725275,781.6849816849817,881.6117216117217,668.8644688644689,-0.237305,0.035400,0.964355,0.171967,-0.134583,-0.411224,1,1,1,1,1,92.000000
2025-03-25 17:37:50.399,0.5829021968612628,0.01559885447153496,0.1378906607023083,0.4067360548171178,0.7648463098440698,-0.2127996151097483,-0.3340377282482992,0.8567631572450932,1.535456946463894,0.1206296663110414,-0.0316684243582698,1.525404821909975,0.3122351183761882,-0.05430902925305735,-0.1054260009376255,0.4698282965921021,-0.1285295810515633,-0.4913476184587709,-0.5967846498122682,0.04327784439674161,768.7912087912088,797.3992673992674,807.8754578754579,790.952380952381,906.996336996337,823.5897435897436,-0.237305,0.035400,0.964355,0.171967,-0.134583,-0.411224,1,1,1,1,1,92.000000
2025-03-25 17:37:50.399,0.5829021968612628,0.01559885447153496,0.1378906607023083,0.4067360548171178,0.7648463098440698,-0.2127996151097483,-0.3340377282482992,0.8567631572450932,1.535456946463894,0.1206296663110414,-0.0316684243582698,1.525404821909975,0.3122351183761882,-0.05430902925305735,-0.1054260009376255,0.4698282965921021,-0.1285295810515633,-0.4913476184587709,-0.5967846498122682,0.04327784439674161,792.1611721611722,798.2051282051282,807.0695970695971,809.4871794871796,924.7252747252747,814.3223443223443,-0.238953,0.035461,0.964050,0.246735,-0.351410,0.104675,1,1,1,1,1,92.000000
2025-03-25 17:37:50.400,0.5829021968612628,0.01559885447153496,0.1378906607023083,0.4067360548171178,0.7648463098440698,-0.2127996151097483,-0.3340377282482992,0.8567631572450932,1.535456946463894,0.1206296663110414,-0.0316684243582698,1.525404821909975,0.3122351183761882,-0.05430902925305735,-0.1054260009376255,0.4698282965921021,-0.1285295810515633,-0.4913476184587709,-0.5967846498122682,0.04327784439674161,783.6996336996338,795.7875457875458,812.3076923076924,801.025641025641,880.8058608058608,833.2600732600733,-0.238953,0.035461,0.964050,0.246735,-0.351410,0.104675,1,1,1,1,1,92.000000
2025-03-25 17:37:50.400,0.5829021968612628,0.01559885447153496,0.1378906607023083,0.4067360548171178,0.7648463098440698,-0.2127996151097483,-0.3340377282482992,0.8567631572450932,1.535456946463894,0.1206296663110414,-0.0316684243582698,1.525404821909975,0.3122351183761882,-0.05430902925305735,-0.1054260009376255,0.4698282965921021,-0.1285295810515633,-0.4913476184587709,-0.5967846498122682,0.04327784439674161,760.3296703296703,797.8021978021978,812.7106227106227,798.2051282051282,834.8717948717949,1061.318681318681,-0.238953,0.035461,0.964050,0.246735,-0.351410,0.104675,1,1,1,1,1,92.000000
2025-03-25 17:37:50.400,0.5829021968612628,0.01559885447153496,0.1378906607023083,0.4067360548171178,0.7648463098440698,-0.2127996151097483,-0.3340377282482992,0.8567631572450932,1.535456946463894,0.1206296663110414,-0.0316684243582698,1.525404821909975,0.3122351183761882,-0.05430902925305735,-0.1054260009376255,0.4698282965921021,-0.1285295810515633,-0.4913476184587709,-0.5967846498122682,0.04327784439674161,756.7032967032967,797.8021978021978,803.8461538461539,799.0109890109891,849.3772893772895,936.4102564102565,-0.238953,0.035461,0.964050,0.246735,-0.351410,0.104675,1,1,1,1,1,92.000000
2025-03-25 17:37:50.400,0.5829021968612628,0.01559885447153496,0.1378906607023083,0.4067360548171178,0.7648463098440698,-0.2127996151097483,-0.3340377282482992,0.8567631572450932,1.535456946463894,0.1206296663110414,-0.0316684243582698,1.525404821909975,0.3122351183761882,-0.05430902925305735,-0.1054260009376255,0.4698282965921021,-0.1285295810515633,-0.4913476184587709,-0.5967846498122682,0.04327784439674161,784.9084249084249,793.3699633699634,805.0549450549451,810.2930402930403,840.9157509157509,790.5494505494506,-0.238953,0.035461,0.964050,0.246735,-0.351410,0.104675,1,1,1,1,1,92.000000
2025-03-25 17:37:50.401,0.5829021968612628,0.01559885447153496,0.1378906607023083,0.4067360548171178,0.7648463098440698,-0.2127996151097483,-0.3340377282482992,0.8567631572450932,1.535456946463894,0.1206296663110414,-0.0316684243582698,1.525404821909975,0.3122351183761882,-0.05430902925305735,-0.1054260009376255,0.4698282965921021,-0.1285295810515633,-0.4913476184587709,-0.5967846498122682,0.04327784439674161,796.996336996337,793.7728937728938,803.8461538461539,818.7545787545788,805.8608058608058,838.0952380952381,-0.238953,0.035461,0.964050,0.246735,-0.351410,0.104675,1,1,1,1,1,92.000000
2025-03-25 17:37:50.401,0.5829021968612628,0.01559885447153496,0.1378906607023083,0.4067360548171178,0.7648463098440698,-0.2127996151097483,-0.3340377282482992,0.8567631572450932,1.535456946463894,0.1206296663110414,-0.0316684243582698,1.525404821909975,0.3122351183761882,-0.05430902925305735,-0.1054260009376255,0.4698282965921021,-0.1285295810515633,-0.4913476184587709,-0.5967846498122682,0.04327784439674161,771.2087912087912,796.5934065934066,802.2344322344322,799.4139194139194,812.7106227106227,971.4652014652015,-0.238953,0.035461,0.964050,0.246735,-0.351410,0.104675,1,1,1,1,1,92.000000
2025-03-25 17:37:50.401,0.5829021968612628,0.01559885447153496,0.1378906607023083,0.4067360548171178,0.7648463098440698,-0.2127996151097483,-0.3340377282482992,0.8567631572450932,1.535456946463894,0.1206296663110414,-0.0316684243582698,1.525404821909975,0.3122351183761882,-0.05430902925305735,-0.1054260009376255,0.4698282965921021,-0.1285295810515633,-0.4913476184587709,-0.5967846498122682,0.04327784439674161,764.3589743589744,802.6373626373627,800.2197802197802,792.967032967033,809.8901098901099,928.3516483516484,-0.238953,0.035461,0.964050,0.246735,-0.351410,0.104675,1,1,1,1,1,92.000000
2025-03-25 17:37:50.402,0.5829021968612628,0.01559885447153496,0.1378906607023083,0.4067360548171178,0.7648463098440698,-0.2127996151097483,-0.3340377282482992,0.8567631572450932,1.535456946463894,0.1206296663110414,-0.0316684243582698,1.525404821909975,0.3122351183761882,-0.05430902925305735,-0.1054260009376255,0.4698282965921021,-0.1285295810515633,-0.4913476184587709,-0.5967846498122682,0.04327784439674161,797.8021978021978,802.2344322344322,797.3992673992674,808.2783882783883,813.1135531135532,703.919413919414,-0.238953,0.035461,0.964050,0.246735,-0.351410,0.104675,1,1,1,1,1,92.000000
2025-03-25 17:37:50.402,0.5829021968612628,0.01559885447153496,0.1378906607023083,0.4067360548171178,0.7648463098440698,-0.2127996151097483,-0.3340377282482992,0.8567631572450932,1.535456946463894,0.1206296663110414,-0.0316684243582698,1.525404821909975,0.3122351183761882,-0.05430902925305735,-0.1054260009376255,0.4698282965921021,-0.1285295810515633,-0.4913476184587709,-0.5967846498122682,0.04327784439674161,818.3516483516484,802.2344322344322,796.5934065934066,813.1135531135532,837.6923076923077,680.952380952381,-0.238953,0.035461,0.964050,0.246735,-0.351410,0.104675,1,1,1,1,1,92.000000
2025-03-25 17:37:50.402,0.5829021968612628,0.01559885447153496,0.1378906607023083,0.4067360548171178,0.7648463098440698,-0.2127996151097483,-0.3340377282482992,0.8567631572450932,1.535456946463894,0.1206296663110414,-0.0316684243582698,1.525404821909975,0.3122351183761882,-0.05430902925305735,-0.1054260009376255,0.4698282965921021,-0.1285295810515633,-0.4913476184587709,-0.5967846498122682,0.04327784439674161,806.6666666666667,803.4432234432235,796.5934065934066,809.0842490842491,836.8864468864469,628.974358974359,-0.238953,0.035461,0.964050,0.246735,-0.351410,0.104675,1,1,1,1,1,92.000000
2025-03-25 17:37:50.403,0.5829021968612628,0.01559885447153496,0.1378906607023083,0.4067360548171178,0.7648463098440698,-0.2127996151097483,-0.3340377282482992,0.8567631572450932,1.535456946463894,0.1206296663110414,-0.0316684243582698,1.525404821909975,0.3122351183761882,-0.05430902925305735,-0.1054260009376255,0.4698282965921021,-0.1285295810515633,-0.4913476184587709,-0.5967846498122682,0.04327784439674161,798.6080586080586,805.4578754578755,802.6373626373627,807.4725274725275,788.1318681318681,839.7069597069598,-0.238953,0.035461,0.964050,0.246735,-0.351410,0.104675,1,1,1,1,1,92.000000
2025-03-25 17:37:50.404,0.5829021968612628,0.01559885447153496,0.1378906607023083,0.4067360548171178,0.7648463098440698,-0.2127996151097483,-0.3340377282482992,0.8567631572450932,1.535456946463894,0.1206296663110414,-0.0316684243582698,1.525404821909975,0.3122351183761882,-0.05430902925305735,-0.1054260009376255,0.4698282965921021,-0.1285295810515633,-0.4913476184587709,-0.5967846498122682,0.04327784439674161,813.1135531135532,804.6520146520147,803.040293040293,812.3076923076924,771.6117216117216,892.0879120879121,-0.239197,0.039368,0.964111,0.710297,-1.233673,0.224304,1,1,1,1,1,92.000000
2025-03-25 17:37:50.404,0.5829021968612628,0.01559885447153496,0.1378906607023083,0.4067360548171178,0.7648463098440698,-0.2127996151097483,-0.3340377282482992,0.8567631572450932,1.535456946463894,0.1206296663110414,-0.0316684243582698,1.525404821909975,0.3122351183761882,-0.05430902925305735,-0.1054260009376255,0.4698282965921021,-0.1285295810515633,-0.4913476184587709,-0.5967846498122682,0.04327784439674161,822.3809523809524,798.2051282051282,797.8021978021978,806.6666666666667,779.6703296703297,589.0842490842491,-0.239197,0.039368,0.964111,0.710297,-1.233673,0.224304,1,1,1,1,1,92.000000
2025-03-25 17:37:50.404,0.5829021968612628,0.01559885447153496,0.1378906607023083,0.4067360548171178,0.7648463098440698,-0.2127996151097483,-0.3340377282482992,0.8567631572450932,1.535456946463894,0.1206296663110414,-0.0316684243582698,1.525404821909975,0.3122351183761882,-0.05430902925305735,-0.1054260009376255,0.4698282965921021,-0.1285295810515633,-0.4913476184587709,-0.5967846498122682,0.04327784439674161,815.934065934066,801.4285714285714,798.6080586080586,803.4432234432235,785.7142857142858,572.967032967033,-0.239197,0.039368,0.964111,0.710297,-1.233673,0.224304,1,1,1,1,1,92.000000
2025-03-25 17:37:50.404,0.5781620936180345,-0.03175694900627532,0.2056663381017571,0.4141949573628867,0.8068102067573626,-0.2585905914209988,-0.2954163464261249,0.8894580944672463,1.529308621700368,0.1287378402382039,-0.04101204340992073,1.525404821909975,0.3197254622859101,-0.04166795252944127,-0.1004980065289915,0.4664265005578654,-0.1501037025060153,-0.5016411237929592,-0.616910040853758,0.03157664564649714,790.952380952381,797.3992673992674,800.6227106227107,798.2051282051282,823.5897435897436,774.4322344322345,-0.239197,0.039368,0.964111,0.710297,-1.233673,0.224304,1,1,1,1,1,92.000000
2025-03-25 17:37:50.405,0.5781620936180345,-0.03175694900627532,0.2056663381017571,0.4141949573628867,0.8068102067573626,-0.2585905914209988,-0.2954163464261249,0.8894580944672463,1.529308621700368,0.1287378402382039,-0.04101204340992073,1.525404821909975,0.3197254622859101,-0.04166795252944127,-0.1004980065289915,0.4664265005578654,-0.1501037025060153,-0.5016411237929592,-0.616910040853758,0.03157664564649714,792.5641025641025,792.1611721611722,805.4578754578755,792.1611721611722,816.7399267399268,891.2820512820513,-0.239197,0.039368,0.964111,0.710297,-1.233673,0.224304,1,1,1,1,1,92.000000
2025-03-25 17:37:50.405,0.5781620936180345,-0.03175694900627532,0.2056663381017571,0.4141949573628867,0.8068102067573626,-0.2585905914209988,-0.2954163464261249,0.8894580944672463,1.529308621700368,0.1287378402382039,-0.04101204340992073,1.525404821909975,0.3197254622859101,-0.04166795252944127,-0.1004980065289915,0.4664265005578654,-0.1501037025060153,-0.5016411237929592,-0.616910040853758,0.03157664564649714,816.3369963369963,794.1758241758242,801.025641025641,802.6373626373627,803.040293040293,967.4358974358975,-0.239197,0.039368,0.964111,0.710297,-1.233673,0.224304,1,1,1,1,1,92.000000
2025-03-25 17:37:50.406,0.5781620936180345,-0.03175694900627532,0.2056663381017571,0.4141949573628867,0.8068102067573626,-0.2585905914209988,-0.2954163464261249,0.8894580944672463,1.529308621700368,0.1287378402382039,-0.04101204340992073,1.525404821909975,0.3197254622859101,-0.04166795252944127,-0.1004980065289915,0.4664265005578654,-0.1501037025060153,-0.5016411237929592,-0.616910040853758,0.03157664564649714,815.1282051282052,796.5934065934066,796.996336996337,801.8315018315019,773.6263736263736,1005.311355311355,-0.239197,0.039368,0.964111,0.710297,-1.233673,0.224304,1,1,1,1,1,92.000000
2025-03-25 17:37:50.406,0.5781620936180345,-0.03175694900627532,0.2056663381017571,0.4141949573628867,0.8068102067573626,-0.2585905914209988,-0.2954163464261249,0.8894580944672463,1.529308621700368,0.1287378402382039,-0.04101204340992073,1.525404821909975,0.3197254622859101,-0.04166795252944127,-0.1004980065289915,0.4664265005578654,-0.1501037025060153,-0.5016411237929592,-0.616910040853758,0.03157664564649714,794.981684981685,802.2344322344322,799.4139194139194,788.1318681318681,747.032967032967,771.2087912087912,-0.239197,0.039368,0.964111,0.710297,-1.233673,0.224304,1,1,1,1,1,92.000000
2025-03-25 17:37:50.406,0.5781620936180345,-0.03175694900627532,0.2056663381017571,0.4141949573628867,0.8068102067573626,-0.2585905914209988,-0.2954163464261249,0.8894580944672463,1.529308621700368,0.1287378402382039,-0.04101204340992073,1.525404821909975,0.3197254622859101,-0.04166795252944127,-0.1004980065289915,0.4664265005578654,-0.1501037025060153,-0.5016411237929592,-0.616910040853758,0.03157664564649714,780.4761904761905,799.4139194139194,797.8021978021978,784.9084249084249,778.4615384615385,642.2710622710623,-0.239197,0.039368,0.964111,0.710297,-1.233673,0.224304,1,1,1,1,1,92.000000
2025-03-25 17:37:50.407,0.5781620936180345,-0.03175694900627532,0.2056663381017571,0.4141949573628867,0.8068102067573626,-0.2585905914209988,-0.2954163464261249,0.8894580944672463,1.529308621700368,0.1287378402382039,-0.04101204340992073,1.525404821909975,0.3197254622859101,-0.04166795252944127,-0.1004980065289915,0.4664265005578654,-0.1501037025060153,-0.5016411237929592,-0.616910040853758,0.03157664564649714,790.1465201465202,792.1611721611722,796.996336996337,791.7582417582418,778.4615384615385,636.6300366300367,-0.239197,0.039368,0.964111,0.710297,-1.233673,0.224304,1,1,1,1,1,92.000000
2025-03-25 17:37:50.407,0.5781620936180345,-0.03175694900627532,0.2056663381017571,0.4141949573628867,0.8068102067573626,-0.2585905914209988,-0.2954163464261249,0.8894580944672463,1.529308621700368,0.1287378402382039,-0.04101204340992073,1.525404821909975,0.3197254622859101,-0.04166795252944127,-0.1004980065289915,0.4664265005578654,-0.1501037025060153,-0.5016411237929592,-0.616910040853758,0.03157664564649714,802.6373626373627,789.7435897435897,798.6080586080586,796.996336996337,812.3076923076924,653.1501831501831,-0.239197,0.039368,0.964111,0.710297,-1.233673,0.224304,1,1,1,1,1,92.000000
2025-03-25 17:37:50.407,0.5781620936180345,-0.03175694900627532,0.2056663381017571,0.4141949573628867,0.8068102067573626,-0.2585905914209988,-0.2954163464261249,0.8894580944672463,1.529308621700368,0.1287378402382039,-0.04101204340992073,1.525404821909975,0.3197254622859101,-0.04166795252944127,-0.1004980065289915,0.4664265005578654,-0.1501037025060153,-0.5016411237929592,-0.616910040853758,0.03157664564649714,781.6849816849817,791.3553113553114,798.2051282051282,778.4615384615385,792.967032967033,697.4725274725275,-0.239197,0.039368,0.964111,0.710297,-1.233673,0.224304,1,1,1,1,1,92.000000
2025-03-25 17:37:50.408,0.5781620936180345,-0.03175694900627532,0.2056663381017571,0.4141949573628867,0.8068102067573626,-0.2585905914209988,-0.2954163464261249,0.8894580944672463,1.529308621700368,0.1287378402382039,-0.04101204340992073,1.525404821909975,0.3197254622859101,-0.04166795252944127,-0.1004980065289915,0.4664265005578654,-0.1501037025060153,-0.5016411237929592,-0.616910040853758,0.03157664564649714,758.3150183150184,793.7728937728938,798.6080586080586,766.7765567765568,768.7912087912088,661.6117216117216,-0.239197,0.039368,0.964111,0.710297,-1.233673,0.224304,1,1,1,1,1,92.000000
2025-03-25 17:37:50.408,0.5781620936180345,-0.03175694900627532,0.2056663381017571,0.4141949573628867,0.8068102067573626,-0.2585905914209988,-0.2954163464261249,0.8894580944672463,1.529308621700368,0.1287378402382039,-0.04101204340992073,1.525404821909975,0.3197254622859101,-0.04166795252944127,-0.1004980065289915,0.4664265005578654,-0.1501037025060153,-0.5016411237929592,-0.616910040853758,0.03157664564649714,779.6703296703297,791.3553113553114,801.025641025641,788.5347985347986,809.8901098901099,657.1794871794872,-0.239197,0.039368,0.964111,0.710297,-1.233673,0.224304,1,1,1,1,1,92.000000
2025-03-25 17:37:50.408,0.5781620936180345,-0.03175694900627532,0.2056663381017571,0.4141949573628867,0.8068102067573626,-0.2585905914209988,-0.2954163464261249,0.8894580944672463,1.529308621700368,0.1287378402382039,-0.04101204340992073,1.525404821909975,0.3197254622859101,-0.04166795252944127,-0.1004980065289915,0.4664265005578654,-0.1501037025060153,-0.5016411237929592,-0.616910040853758,0.03157664564649714,794.981684981685,786.9230769230769,801.4285714285714,797.3992673992674,788.9377289377289,907.3992673992674,-0.239197,0.039368,0.964111,0.710297,-1.233673,0.224304,1,1,1,1,1,92.000000
2025-03-25 17:37:50.408,0.5781620936180345,-0.03175694900627532,0.2056663381017571,0.4141949573628867,0.8068102067573626,-0.2585905914209988,-0.2954163464261249,0.8894580944672463,1.529308621700368,0.1287378402382039,-0.04101204340992073,1.525404821909975,0.3197254622859101,-0.04166795252944127,-0.1004980065289915,0.4664265005578654,-0.1501037025060153,-0.5016411237929592,-0.616910040853758,0.03157664564649714,773.2234432234433,785.7142857142858,801.8315018315019,787.7289377289378,736.1538461538462,983.5531135531136,-0.239197,0.039368,0.964111,0.710297,-1.233673,0.224304,1,1,1,1,1,92.000000
2025-03-25 17:37:50.409,0.5781620936180345,-0.03175694900627532,0.2056663381017571,0.4141949573628867,0.8068102067573626,-0.2585905914209988,-0.2954163464261249,0.8894580944672463,1.529308621700368,0.1287378402382039,-0.04101204340992073,1.525404821909975,0.3197254622859101,-0.04166795252944127,-0.1004980065289915,0.4664265005578654,-0.1501037025060153,-0.5016411237929592,-0.616910040853758,0.03157664564649714,755.0915750915751,785.7142857142858,802.6373626373627,780.0732600732601,749.8534798534798,793.3699633699634,-0.239197,0.039368,0.964111,0.710297,-1.233673,0.224304,1,1,1,1,1,92.000000
2025-03-25 17:37:50.409,0.5781620936180345,-0.03175694900627532,0.2056663381017571,0.4141949573628867,0.8068102067573626,-0.2585905914209988,-0.2954163464261249,0.8894580944672463,1.529308621700368,0.1287378402382039,-0.04101204340992073,1.525404821909975,0.3197254622859101,-0.04166795252944127,-0.1004980065289915,0.4664265005578654,-0.1501037025060153,-0.5016411237929592,-0.616910040853758,0.03157664564649714,768.7912087912088,787.3260073260074,805.0549450549451,788.9377289377289,758.7179487179487,842.1245421245421,-0.239197,0.039368,0.964111,0.710297,-1.233673,0.224304,1,1,1,1,1,92.000000
2025-03-25 17:37:50.409,0.5781620936180345,-0.03175694900627532,0.2056663381017571,0.4141949573628867,0.8068102067573626,-0.2585905914209988,-0.2954163464261249,0.8894580944672463,1.529308621700368,0.1287378402382039,-0.04101204340992073,1.525404821909975,0.3197254622859101,-0.04166795252944127,-0.1004980065289915,0.4664265005578654,-0.1501037025060153,-0.5016411237929592,-0.616910040853758,0.03157664564649714,786.1172161172161,789.3406593406594,803.8461538461539,797.3992673992674,739.3772893772893,953.7362637362637,-0.239197,0.039368,0.964111,0.710297,-1.233673,0.224304,1,1,1,1,1,92.000000
2025-03-25 17:37:50.409,0.5781620936180345,-0.03175694900627532,0.2056663381017571,0.4141949573628867,0.8068102067573626,-0.2585905914209988,-0.2954163464261249,0.8894580944672463,1.529308621700368,0.1287378402382039,-0.04101204340992073,1.525404821909975,0.3197254622859101,-0.04166795252944127,-0.1004980065289915,0.4664265005578654,-0.1501037025060153,-0.5016411237929592,-0.616910040853758,0.03157664564649714,780.8791208791209,791.7582417582418,806.2637362637363,798.6080586080586,725.2747252747253,759.5238095238095,-0.239197,0.039368,0.964111,0.710297,-1.233673,0.224304,1,1,1,1,1,92.000000
2025-03-25 17:37:50.410,0.5781620936180345,-0.03175694900627532,0.2056663381017571,0.4141949573628867,0.8068102067573626,-0.2585905914209988,-0.2954163464261249,0.8894580944672463,1.529308621700368,0.1287378402382039,-0.04101204340992073,1.525404821909975,0.3197254622859101,-0.04166795252944127,-0.1004980065289915,0.4664265005578654,-0.1501037025060153,-0.5016411237929592,-0.616910040853758,0.03157664564649714,770,790.5494505494506,808.6813186813187,794.5787545787546,722.0512820512821,592.3076923076924,-0.239197,0.039368,0.964111,0.710297,-1.233673,0.224304,1,1,1,1,1,92.000000
2025-03-25 17:37:50.410,0.5781620936180345,-0.03175694900627532,0.2056663381017571,0.4141949573628867,0.8068102067573626,-0.2585905914209988,-0.2954163464261249,0.8894580944672463,1.529308621700368,0.1287378402382039,-0.04101204340992073,1.525404821909975,0.3197254622859101,-0.04166795252944127,-0.1004980065289915,0.4664265005578654,-0.1501037025060153,-0.5016411237929592,-0.616910040853758,0.03157664564649714,786.5201465201466,794.981684981685,805.8608058608058,801.025641025641,741.7948717948718,655.1648351648352,-0.239197,0.039368,0.964111,0.710297,-1.233673,0.224304,1,1,1,1,1,92.000000
2025-03-25 17:37:50.410,0.5781620936180345,-0.03175694900627532,0.2056663381017571,0.4141949573628867,0.8068102067573626,-0.2585905914209988,-0.2954163464261249,0.8894580944672463,1.529308621700368,0.1287378402382039,-0.04101204340992073,1.525404821909975,0.3197254622859101,-0.04166795252944127,-0.1004980065289915,0.4664265005578654,-0.1501037025060153,-0.5016411237929592,-0.616910040853758,0.03157664564649714,815.5311355311355,800.2197802197802,802.6373626373627,813.919413919414,810.2930402930403,720.8424908424909,-0.239197,0.039368,0.964111,0.710297,-1.233673,0.224304,1,1,1,1,1,92.000000
2025-03-25 17:37:50.411,0.5781620936180345,-0.03175694900627532,0.2056663381017571,0.4141949573628867,0.8068102067573626,-0.2585905914209988,-0.2954163464261249,0.8894580944672463,1.529308621700368,0.1287378402382039,-0.04101204340992073,1.525404821909975,0.3197254622859101,-0.04166795252944127,-0.1004980065289915,0.4664265005578654,-0.1501037025060153,-0.5016411237929592,-0.616910040853758,0.03157664564649714,818.3516483516484,799.4139194139194,799.8168498168499,811.0989010989011,851.7948717948718,752.6739926739926,-0.239197,0.039368,0.964111,0.710297,-1.233673,0.224304,1,1,1,1,1,92.000000
2025-03-25 17:37:50.411,0.5781620936180345,-0.03175694900627532,0.2056663381017571,0.4141949573628867,0.8068102067573626,-0.2585905914209988,-0.2954163464261249,0.8894580944672463,1.529308621700368,0.1287378402382039,-0.04101204340992073,1.525404821909975,0.3197254622859101,-0.04166795252944127,-0.1004980065289915,0.4664265005578654,-0.1501037025060153,-0.5016411237929592,-0.616910040853758,0.03157664564649714,790.1465201465202,794.5787545787546,797.8021978021978,798.2051282051282,798.2051282051282,720.0366300366301,-0.235840,0.043091,0.963562,0.553284,-1.076660,0.889740,1,1,1,1,1,92.000000
2025-03-25 17:37:50.412,0.5781620936180345,-0.03175694900627532,0.2056663381017571,0.4141949573628867,0.8068102067573626,-0.2585905914209988,-0.2954163464261249,0.8894580944672463,1.529308621700368,0.1287378402382039,-0.04101204340992073,1.525404821909975,0.3197254622859101,-0.04166795252944127,-0.1004980065289915,0.4664265005578654,-0.1501037025060153,-0.5016411237929592,-0.616910040853758,0.03157664564649714,786.5201465201466,792.5641025641025,802.2344322344322,802.2344322344322,749.8534798534798,574.981684981685,-0.235840,0.043091,0.963562,0.553284,-1.076660,0.889740,1,1,1,1,1,92.000000
2025-03-25 17:37:50.412,0.5781620936180345,-0.03175694900627532,0.2056663381017571,0.4141949573628867,0.8068102067573626,-0.2585905914209988,-0.2954163464261249,0.8894580944672463,1.529308621700368,0.1287378402382039,-0.04101204340992073,1.525404821909975,0.3197254622859101,-0.04166795252944127,-0.1004980065289915,0.4664265005578654,-0.1501037025060153,-0.5016411237929592,-0.616910040853758,0.03157664564649714,821.5750915750916,798.6080586080586,805.8608058608058,814.3223443223443,753.4798534798535,601.1721611721612,-0.235840,0.043091,0.963562,0.553284,-1.076660,0.889740,1,1,1,1,1,92.000000
2025-03-25 17:37:50.412,0.5781620936180345,-0.03175694900627532,0.2056663381017571,0.4141949573628867,0.8068102067573626,-0.2585905914209988,-0.2954163464261249,0.8894580944672463,1.529308621700368,0.1287378402382039,-0.04101204340992073,1.525404821909975,0.3197254622859101,-0.04166795252944127,-0.1004980065289915,0.4664265005578654,-0.1501037025060153,-0.5016411237929592,-0.616910040853758,0.03157664564649714,834.8717948717949,802.2344322344322,803.040293040293,817.948717948718,796.996336996337,721.2454212454213,-0.235840,0.043091,0.963562,0.553284,-1.076660,0.889740,1,1,1,1,1,92.000000
2025-03-25 17:37:50.412,0.5781620936180345,-0.03175694900627532,0.2056663381017571,0.4141949573628867,0.8068102067573626,-0.2585905914209988,-0.2954163464261249,0.8894580944672463,1.529308621700368,0.1287378402382039,-0.04101204340992073,1.525404821909975,0.3197254622859101,-0.04166795252944127,-0.1004980065289915,0.4664265005578654,-0.1501037025060153,-0.5016411237929592,-0.616910040853758,0.03157664564649714,812.3076923076924,801.025641025641,803.040293040293,811.0989010989011,817.948717948718,820.3663003663004,-0.235840,0.043091,0.963562,0.553284,-1.076660,0.889740,1,1,1,1,1,92.000000
2025-03-25 17:37:50.413,0.5661909064246251,-0.05960638597035494,0.2495199531191284,0.4354810681058076,0.8287121902842153,-0.2860712850594464,-0.2381361678058712,0.9111701529492197,1.499349479359859,0.145209009959645,-0.04831083425349997,1.51317035416246,0.3232963249013576,-0.03121822822204385,-0.09330099722129194,0.4574216386313318,-0.1639269477135034,-0.5007980979245902,-0.6238838524307563,0.01804223092493884,795.3846153846154,799.0109890109891,803.4432234432235,798.2051282051282,868.7179487179487,975.0915750915751,-0.235840,0.043091,0.963562,0.553284,-1.076660,0.889740,1,1,1,1,1,92.000000
2025-03-25 17:37:50.413,0.5661909064246251,-0.05960638597035494,0.2495199531191284,0.4354810681058076,0.8287121902842153,-0.2860712850594464,-0.2381361678058712,0.9111701529492197,1.499349479359859,0.145209009959645,-0.04831083425349997,1.51317035416246,0.3232963249013576,-0.03121822822204385,-0.09330099722129194,0.4574216386313318,-0.1639269477135034,-0.5007980979245902,-0.6238838524307563,0.01804223092493884,816.3369963369963,798.6080586080586,800.2197802197802,805.0549450549451,937.2161172161173,1120.952380952381,-0.235840,0.043091,0.963562,0.553284,-1.076660,0.889740,1,1,1,1,1,92.000000
2025-03-25 17:37:50.414,0.5661909064246251,-0.05960638597035494,0.2495199531191284,0.4354810681058076,0.8287121902842153,-0.2860712850594464,-0.2381361678058712,0.9111701529492197,1.499349479359859,0.145209009959645,-0.04831083425349997,1.51317035416246,0.3232963249013576,-0.03121822822204385,-0.09330099722129194,0.4574216386313318,-0.1639269477135034,-0.5007980979245902,-0.6238838524307563,0.01804223092493884,832.4542124542124,800.6227106227107,798.2051282051282,811.0989010989011,902.967032967033,1234.578754578755,-0.235840,0.043091,0.963562,0.553284,-1.076660,0.889740,1,1,1,1,1,92.000000
2025-03-25 17:37:50.414,0.5661909064246251,-0.05960638597035494,0.2495199531191284,0.4354810681058076,0.8287121902842153,-0.2860712850594464,-0.2381361678058712,0.9111701529492197,1.499349479359859,0.145209009959645,-0.04831083425349997,1.51317035416246,0.3232963249013576,-0.03121822822204385,-0.09330099722129194,0.4574216386313318,-0.1639269477135034,-0.5007980979245902,-0.6238838524307563,0.01804223092493884,820.7692307692308,801.025641025641,796.996336996337,801.025641025641,874.7619047619048,952.1245421245421,-0.235840,0.043091,0.963562,0.553284,-1.076660,0.889740,1,1,1,1,1,92.000000
2025-03-25 17:37:50.414,0.5661909064246251,-0.05960638597035494,0.2495199531191284,0.4354810681058076,0.8287121902842153,-0.2860712850594464,-0.2381361678058712,0.9111701529492197,1.499349479359859,0.145209009959645,-0.04831083425349997,1.51317035416246,0.3232963249013576,-0.03121822822204385,-0.09330099722129194,0.4574216386313318,-0.1639269477135034,-0.5007980979245902,-0.6238838524307563,0.01804223092493884,798.2051282051282,807.0695970695971,796.5934065934066,782.893772893773,807.4725274725275,568.9377289377289,-0.235840,0.043091,0.963562,0.553284,-1.076660,0.889740,1,1,1,1,1,92.000000
2025-03-25 17:37:50.415,0.5661909064246251,-0.05960638597035494,0.2495199531191284,0.4354810681058076,0.8287121902842153,-0.2860712850594464,-0.2381361678058712,0.9111701529492197,1.499349479359859,0.145209009959645,-0.04831083425349997,1.51317035416246,0.3232963249013576,-0.03121822822204385,-0.09330099722129194,0.4574216386313318,-0.1639269477135034,-0.5007980979245902,-0.6238838524307563,0.01804223092493884,803.8461538461539,809.8901098901099,795.7875457875458,782.4908424908425,801.4285714285714,582.6373626373627,-0.235840,0.043091,0.963562,0.553284,-1.076660,0.889740,1,1,1,1,1,92.000000
2025-03-25 17:37:50.415,0.5661909064246251,-0.05960638597035494,0.2495199531191284,0.4354810681058076,0.8287121902842153,-0.2860712850594464,-0.2381361678058712,0.9111701529492197,1.499349479359859,0.145209009959645,-0.04831083425349997,1.51317035416246,0.3232963249013576,-0.03121822822204385,-0.09330099722129194,0.4574216386313318,-0.1639269477135034,-0.5007980979245902,-0.6238838524307563,0.01804223092493884,820.7692307692308,803.8461538461539,796.1904761904763,792.967032967033,839.3040293040293,760.3296703296703,-0.235840,0.043091,0.963562,0.553284,-1.076660,0.889740,1,1,1,1,1,92.000000
2025-03-25 17:37:50.415,0.5661909064246251,-0.05960638597035494,0.2495199531191284,0.4354810681058076,0.8287121902842153,-0.2860712850594464,-0.2381361678058712,0.9111701529492197,1.499349479359859,0.145209009959645,-0.04831083425349997,1.51317035416246,0.3232963249013576,-0.03121822822204385,-0.09330099722129194,0.4574216386313318,-0.1639269477135034,-0.5007980979245902,-0.6238838524307563,0.01804223092493884,814.3223443223443,802.6373626373627,792.5641025641025,789.7435897435897,856.2271062271062,800.6227106227107,-0.236084,0.043945,0.964233,0.164490,-0.942078,0.538330,1,1,1,1,1,92.000000
2025-03-25 17:37:50.416,0.5661909064246251,-0.05960638597035494,0.2495199531191284,0.4354810681058076,0.8287121902842153,-0.2860712850594464,-0.2381361678058712,0.9111701529492197,1.499349479359859,0.145209009959645,-0.04831083425349997,1.51317035416246,0.3232963249013576,-0.03121822822204385,-0.09330099722129194,0.4574216386313318,-0.1639269477135034,-0.5007980979245902,-0.6238838524307563,0.01804223092493884,796.5934065934066,803.4432234432235,790.5494505494506,784.9084249084249,867.5091575091575,681.3553113553114,-0.236084,0.043945,0.964233,0.164490,-0.942078,0.538330,1,1,1,1,1,92.000000
2025-03-25 17:37:50.416,0.5661909064246251,-0.05960638597035494,0.2495199531191284,0.4354810681058076,0.8287121902842153,-0.2860712850594464,-0.2381361678058712,0.9111701529492197,1.499349479359859,0.145209009959645,-0.04831083425349997,1.51317035416246,0.3232963249013576,-0.03121822822204385,-0.09330099722129194,0.4574216386313318,-0.1639269477135034,-0.5007980979245902,-0.6238838524307563,0.01804223092493884,800.6227106227107,801.4285714285714,793.3699633699634,791.3553113553114,795.7875457875458,828.021978021978,-0.236084,0.043945,0.964233,0.164490,-0.942078,0.538330,1,1,1,1,1,92.000000
2025-03-25 17:37:50.416,0.5661909064246251,-0.05960638597035494,0.2495199531191284,0.4354810681058076,0.8287121902842153,-0.2860712850594464,-0.2381361678058712,0.9111701529492197,1.499349479359859,0.145209009959645,-0.04831083425349997,1.51317035416246,0.3232963249013576,-0.03121822822204385,-0.09330099722129194,0.4574216386313318,-0.1639269477135034,-0.5007980979245902,-0.6238838524307563,0.01804223092493884,817.5457875457876,794.5787545787546,791.3553113553114,799.8168498168499,819.1575091575091,1017.399267399267,-0.236084,0.043945,0.964233,0.164490,-0.942078,0.538330,1,1,1,1,1,92.000000
2025-03-25 17:37:50.416,0.5661909064246251,-0.05960638597035494,0.2495199531191284,0.4354810681058076,0.8287121902842153,-0.2860712850594464,-0.2381361678058712,0.9111701529492197,1.499349479359859,0.145209009959645,-0.04831083425349997,1.51317035416246,0.3232963249013576,-0.03121822822204385,-0.09330099722129194,0.4574216386313318,-0.1639269477135034,-0.5007980979245902,-0.6238838524307563,0.01804223092493884,809.0842490842491,794.5787545787546,791.7582417582418,799.8168498168499,853.0036630036631,865.0915750915751,-0.236084,0.043945,0.964233,0.164490,-0.942078,0.538330,1,1,1,1,1,92.000000
2025-03-25 17:37:50.417,0.5661909064246251,-0.05960638597035494,0.2495199531191284,0.4354810681058076,0.8287121902842153,-0.2860712850594464,-0.2381361678058712,0.9111701529492197,1.499349479359859,0.145209009959645,-0.04831083425349997,1.51317035416246,0.3232963249013576,-0.03121822822204385,-0.09330099722129194,0.4574216386313318,-0.1639269477135034,-0.5007980979245902,-0.6238838524307563,0.01804223092493884,788.1318681318681,796.5934065934066,797.8021978021978,794.981684981685,897.7289377289378,969.047619047619,-0.236084,0.043945,0.964233,0.164490,-0.942078,0.538330,1,1,1,1,1,92.000000
2025-03-25 17:37:50.417,0.5661909064246251,-0.05960638597035494,0.2495199531191284,0.4354810681058076,0.8287121902842153,-0.2860712850594464,-0.2381361678058712,0.9111701529492197,1.499349479359859,0.145209009959645,-0.04831083425349997,1.51317035416246,0.3232963249013576,-0.03121822822204385,-0.09330099722129194,0.4574216386313318,-0.1639269477135034,-0.5007980979245902,-0.6238838524307563,0.01804223092493884,783.2967032967033,798.6080586080586,804.6520146520147,796.1904761904763,873.1501831501831,1092.747252747253,-0.236084,0.043945,0.964233,0.164490,-0.942078,0.538330,1,1,1,1,1,92.000000
2025-03-25 17:37:50.417,0.5661909064246251,-0.05960638597035494,0.2495199531191284,0.4354810681058076,0.8287121902842153,-0.2860712850594464,-0.2381361678058712,0.9111701529492197,1.499349479359859,0.145209009959645,-0.04831083425349997,1.51317035416246,0.3232963249013576,-0.03121822822204385,-0.09330099722129194,0.4574216386313318,-0.1639269477135034,-0.5007980979245902,-0.6238838524307563,0.01804223092493884,803.8461538461539,800.6227106227107,801.4285714285714,807.0695970695971,806.6666666666667,940.8424908424909,-0.236084,0.043945,0.964233,0.164490,-0.942078,0.538330,1,1,1,1,1,92.000000
2025-03-25 17:37:50.417,0.5661909064246251,-0.05960638597035494,0.2495199531191284,0.4354810681058076,0.8287121902842153,-0.2860712850594464,-0.2381361678058712,0.9111701529492197,1.499349479359859,0.145209009959645,-0.04831083425349997,1.51317035416246,0.3232963249013576,-0.03121822822204385,-0.09330099722129194,0.4574216386313318,-0.1639269477135034,-0.5007980979245902,-0.6238838524307563,0.01804223092493884,811.0989010989011,800.2197802197802,794.5787545787546,820.3663003663004,821.1721611721612,714.7985347985348,-0.236084,0.043945,0.964233,0.164490,-0.942078,0.538330,1,1,1,1,1,92.000000
2025-03-25 17:37:50.418,0.5661909064246251,-0.05960638597035494,0.2495199531191284,0.4354810681058076,0.8287121902842153,-0.2860712850594464,-0.2381361678058712,0.9111701529492197,1.499349479359859,0.145209009959645,-0.04831083425349997,1.51317035416246,0.3232963249013576,-0.03121822822204385,-0.09330099722129194,0.4574216386313318,-0.1639269477135034,-0.5007980979245902,-0.6238838524307563,0.01804223092493884,792.967032967033,796.5934065934066,795.3846153846154,818.3516483516484,830.0366300366301,688.2051282051282,-0.236084,0.043945,0.964233,0.164490,-0.942078,0.538330,1,1,1,1,1,92.000000
2025-03-25 17:37:50.418,0.5661909064246251,-0.05960638597035494,0.2495199531191284,0.4354810681058076,0.8287121902842153,-0.2860712850594464,-0.2381361678058712,0.9111701529492197,1.499349479359859,0.145209009959645,-0.04831083425349997,1.51317035416246,0.3232963249013576,-0.03121822822204385,-0.09330099722129194,0.4574216386313318,-0.1639269477135034,-0.5007980979245902,-0.6238838524307563,0.01804223092493884,777.6556776556777,795.7875457875458,797.3992673992674,810.6959706959707,827.6190476190476,749.4505494505495,-0.236084,0.043945,0.964233,0.164490,-0.942078,0.538330,1,1,1,1,1,92.000000
2025-03-25 17:37:50.418,0.5661909064246251,-0.05960638597035494,0.2495199531191284,0.4354810681058076,0.8287121902842153,-0.2860712850594464,-0.2381361678058712,0.9111701529492197,1.499349479359859,0.145209009959645,-0.04831083425349997,1.51317035416246,0.3232963249013576,-0.03121822822204385,-0.09330099722129194,0.4574216386313318,-0.1639269477135034,-0.5007980979245902,-0.6238838524307563,0.01804223092493884,794.5787545787546,797.3992673992674,796.1904761904763,813.919413919414,798.6080586080586,733.7362637362637,-0.236084,0.043945,0.964233,0.164490,-0.942078,0.538330,1,1,1,1,1,92.000000
2025-03-25 17:37:50.419,0.5661909064246251,-0.05960638597035494,0.2495199531191284,0.4354810681058076,0.8287121902842153,-0.2860712850594464,-0.2381361678058712,0.9111701529492197,1.499349479359859,0.145209009959645,-0.04831083425349997,1.51317035416246,0.3232963249013576,-0.03121822822204385,-0.09330099722129194,0.4574216386313318,-0.1639269477135034,-0.5007980979245902,-0.6238838524307563,0.01804223092493884,815.5311355311355,799.0109890109891,794.5787545787546,817.948717948718,811.9047619047619,711.1721611721612,-0.237793,0.042114,0.968079,0.314026,-1.211243,-0.269165,1,1,1,1,1,92.000000
2025-03-25 17:37:50.419,0.5661909064246251,-0.05960638597035494,0.2495199531191284,0.4354810681058076,0.8287121902842153,-0.2860712850594464,-0.2381361678058712,0.9111701529492197,1.499349479359859,0.145209009959645,-0.04831083425349997,1.51317035416246,0.3232963249013576,-0.03121822822204385,-0.09330099722129194,0.4574216386313318,-0.1639269477135034,-0.5007980979245902,-0.6238838524307563,0.01804223092493884,809.4871794871796,799.8168498168499,796.996336996337,812.3076923076924,816.3369963369963,662.014652014652,-0.237793,0.042114,0.968079,0.314026,-1.211243,-0.269165,1,1,1,1,1,92.000000
2025-03-25 17:37:50.419,0.5661909064246251,-0.05960638597035494,0.2495199531191284,0.4354810681058076,0.8287121902842153,-0.2860712850594464,-0.2381361678058712,0.9111701529492197,1.499349479359859,0.145209009959645,-0.04831083425349997,1.51317035416246,0.3232963249013576,-0.03121822822204385,-0.09330099722129194,0.4574216386313318,-0.1639269477135034,-0.5007980979245902,-0.6238838524307563,0.01804223092493884,787.7289377289378,799.0109890109891,794.981684981685,804.6520146520147,818.3516483516484,690.6227106227107,-0.237793,0.042114,0.968079,0.314026,-1.211243,-0.269165,1,1,1,1,1,92.000000
2025-03-25 17:37:50.420,0.5661909064246251,-0.05960638597035494,0.2495199531191284,0.4354810681058076,0.8287121902842153,-0.2860712850594464,-0.2381361678058712,0.9111701529492197,1.499349479359859,0.145209009959645,-0.04831083425349997,1.51317035416246,0.3232963249013576,-0.03121822822204385,-0.09330099722129194,0.4574216386313318,-0.1639269477135034,-0.5007980979245902,-0.6238838524307563,0.01804223092493884,800.2197802197802,801.025641025641,794.5787545787546,809.8901098901099,851.7948717948718,773.2234432234433,-0.237793,0.042114,0.968079,0.314026,-1.211243,-0.269165,1,1,1,1,1,92.000000
2025-03-25 17:37:50.420,0.5661909064246251,-0.05960638597035494,0.2495199531191284,0.4354810681058076,0.8287121902842153,-0.2860712850594464,-0.2381361678058712,0.9111701529492197,1.499349479359859,0.145209009959645,-0.04831083425349997,1.51317035416246,0.3232963249013576,-0.03121822822204385,-0.09330099722129194,0.4574216386313318,-0.1639269477135034,-0.5007980979245902,-0.6238838524307563,0.01804223092493884,827.6190476190476,802.2344322344322,798.2051282051282,817.948717948718,810.6959706959707,786.1172161172161,-0.237793,0.042114,0.968079,0.314026,-1.211243,-0.269165,1,1,1,1,1,92.000000
2025-03-25 17:37:50.420,0.5661909064246251,-0.05960638597035494,0.2495199531191284,0.4354810681058076,0.8287121902842153,-0.2860712850594464,-0.2381361678058712,0.9111701529492197,1.499349479359859,0.145209009959645,-0.04831083425349997,1.51317035416246,0.3232963249013576,-0.03121822822204385,-0.09330099722129194,0.4574216386313318,-0.1639269477135034,-0.5007980979245902,-0.6238838524307563,0.01804223092493884,828.021978021978,803.040293040293,798.6080586080586,818.3516483516484,780.8791208791209,1016.190476190476,-0.237793,0.042114,0.968079,0.314026,-1.211243,-0.269165,1,1,1,1,1,92.000000
2025-03-25 17:37:50.420,0.5661909064246251,-0.05960638597035494,0.2495199531191284,0.4354810681058076,0.8287121902842153,-0.2860712850594464,-0.2381361678058712,0.9111701529492197,1.499349479359859,0.145209009959645,-0.04831083425349997,1.51317035416246,0.3232963249013576,-0.03121822822204385,-0.09330099722129194,0.4574216386313318,-0.1639269477135034,-0.5007980979245902,-0.6238838524307563,0.01804223092493884,801.8315018315019,803.040293040293,796.1904761904763,805.0549450549451,768.3882783882784,1147.948717948718,-0.237793,0.042114,0.968079,0.314026,-1.211243,-0.269165,1,1,1,1,1,92.000000
2025-03-25 17:37:50.421,0.5578314050304636,-0.0713634157630996,0.2805395648662933,0.4571642075566689,0.8284302321977032,-0.2935959305138899,-0.1881524933973648,0.9146346846857778,1.447291876946766,0.1612938933392447,-0.03877978829556304,1.50138923372358,0.3174411061158841,-0.0260783741109553,-0.08571077079739656,0.4445581769472845,-0.1704057446848606,-0.489014511715113,-0.6179500886392749,0.006442520536981888,798.2051282051282,797.8021978021978,794.5787545787546,806.6666666666667,760.7326007326008,981.1355311355312,-0.237793,0.042114,0.968079,0.314026,-1.211243,-0.269165,1,1,1,1,1,92.000000
2025-03-25 17:37:50.421,0.5578314050304636,-0.0713634157630996,0.2805395648662933,0.4571642075566689,0.8284302321977032,-0.2935959305138899,-0.1881524933973648,0.9146346846857778,1.447291876946766,0.1612938933392447,-0.03877978829556304,1.50138923372358,0.3174411061158841,-0.0260783741109553,-0.08571077079739656,0.4445581769472845,-0.1704057446848606,-0.489014511715113,-0.6179500886392749,0.006442520536981888,818.7545787545788,796.1904761904763,798.6080586080586,815.5311355311355,816.7399267399268,734.5421245421246,-0.237793,0.042114,0.968079,0.314026,-1.211243,-0.269165,1,1,1,1,1,92.000000
2025-03-25 17:37:50.422,0.5578314050304636,-0.0713634157630996,0.2805395648662933,0.4571642075566689,0.8284302321977032,-0.2935959305138899,-0.1881524933973648,0.9146346846857778,1.447291876946766,0.1612938933392447,-0.03877978829556304,1.50138923372358,0.3174411061158841,-0.0260783741109553,-0.08571077079739656,0.4445581769472845,-0.1704057446848606,-0.489014511715113,-0.6179500886392749,0.006442520536981888,821.1721611721612,794.981684981685,796.1904761904763,811.9047619047619,774.8351648351648,632.1978021978022,-0.237793,0.042114,0.968079,0.314026,-1.211243,-0.269165,1,1,1,1,1,92.000000
2025-03-25 17:37:50.422,0.5578314050304636,-0.0713634157630996,0.2805395648662933,0.4571642075566689,0.8284302321977032,-0.2935959305138899,-0.1881524933973648,0.9146346846857778,1.447291876946766,0.1612938933392447,-0.03877978829556304,1.50138923372358,0.3174411061158841,-0.0260783741109553,-0.08571077079739656,0.4445581769472845,-0.1704057446848606,-0.489014511715113,-0.6179500886392749,0.006442520536981888,803.4432234432235,794.5787545787546,794.5787545787546,801.4285714285714,699.0842490842491,655.5677655677656,-0.237793,0.042114,0.968079,0.314026,-1.211243,-0.269165,1,1,1,1,1,92.000000
2025-03-25 17:37:50.422,0.5578314050304636,-0.0713634157630996,0.2805395648662933,0.4571642075566689,0.8284302321977032,-0.2935959305138899,-0.1881524933973648,0.9146346846857778,1.447291876946766,0.1612938933392447,-0.03877978829556304,1.50138923372358,0.3174411061158841,-0.0260783741109553,-0.08571077079739656,0.4445581769472845,-0.1704057446848606,-0.489014511715113,-0.6179500886392749,0.006442520536981888,795.3846153846154,794.1758241758242,797.8021978021978,797.3992673992674,692.2344322344322,614.0659340659341,-0.237793,0.042114,0.968079,0.314026,-1.211243,-0.269165,1,1,1,1,1,92.000000
2025-03-25 17:37:50.422,0.5578314050304636,-0.0713634157630996,0.2805395648662933,0.4571642075566689,0.8284302321977032,-0.2935959305138899,-0.1881524933973648,0.9146346846857778,1.447291876946766,0.1612938933392447,-0.03877978829556304,1.50138923372358,0.3174411061158841,-0.0260783741109553,-0.08571077079739656,0.4445581769472845,-0.1704057446848606,-0.489014511715113,-0.6179500886392749,0.006442520536981888,809.8901098901099,792.967032967033,794.5787545787546,801.025641025641,754.2857142857143,628.1684981684982,-0.236572,0.044128,0.963806,0.269165,-1.158905,-0.418701,1,1,1,1,1,92.000000
2025-03-25 17:37:50.423,0.5578314050304636,-0.0713634157630996,0.2805395648662933,0.4571642075566689,0.8284302321977032,-0.2935959305138899,-0.1881524933973648,0.9146346846857778,1.447291876946766,0.1612938933392447,-0.03877978829556304,1.50138923372358,0.3174411061158841,-0.0260783741109553,-0.08571077079739656,0.4445581769472845,-0.1704057446848606,-0.489014511715113,-0.6179500886392749,0.006442520536981888,817.1428571428571,799.0109890109891,799.4139194139194,803.040293040293,796.996336996337,926.7399267399268,-0.236572,0.044128,0.963806,0.269165,-1.158905,-0.418701,1,1,1,1,1,92.000000
2025-03-25 17:37:50.423,0.5578314050304636,-0.0713634157630996,0.2805395648662933,0.4571642075566689,0.8284302321977032,-0.2935959305138899,-0.1881524933973648,0.9146346846857778,1.447291876946766,0.1612938933392447,-0.03877978829556304,1.50138923372358,0.3174411061158841,-0.0260783741109553,-0.08571077079739656,0.4445581769472845,-0.1704057446848606,-0.489014511715113,-0.6179500886392749,0.006442520536981888,803.040293040293,799.0109890109891,803.4432234432235,797.3992673992674,796.1904761904763,1132.637362637363,-0.236572,0.044128,0.963806,0.269165,-1.158905,-0.418701,1,1,1,1,1,92.000000
2025-03-25 17:37:50.423,0.5578314050304636,-0.0713634157630996,0.2805395648662933,0.4571642075566689,0.8284302321977032,-0.2935959305138899,-0.1881524933973648,0.9146346846857778,1.447291876946766,0.1612938933392447,-0.03877978829556304,1.50138923372358,0.3174411061158841,-0.0260783741109553,-0.08571077079739656,0.4445581769472845,-0.1704057446848606,-0.489014511715113,-0.6179500886392749,0.006442520536981888,786.1172161172161,794.1758241758242,796.996336996337,788.9377289377289,809.8901098901099,822.7838827838829,-0.236572,0.044128,0.963806,0.269165,-1.158905,-0.418701,1,1,1,1,1,92.000000
2025-03-25 17:37:50.423,0.5578314050304636,-0.0713634157630996,0.2805395648662933,0.4571642075566689,0.8284302321977032,-0.2935959305138899,-0.1881524933973648,0.9146346846857778,1.447291876946766,0.1612938933392447,-0.03877978829556304,1.50138923372358,0.3174411061158841,-0.0260783741109553,-0.08571077079739656,0.4445581769472845,-0.1704057446848606,-0.489014511715113,-0.6179500886392749,0.006442520536981888,800.2197802197802,790.1465201465202,796.996336996337,798.2051282051282,790.1465201465202,697.4725274725275,-0.236572,0.044128,0.963806,0.269165,-1.158905,-0.418701,1,1,1,1,1,92.000000
2025-03-25 17:37:50.424,0.5578314050304636,-0.0713634157630996,0.2805395648662933,0.4571642075566689,0.8284302321977032,-0.2935959305138899,-0.1881524933973648,0.9146346846857778,1.447291876946766,0.1612938933392447,-0.03877978829556304,1.50138923372358,0.3174411061158841,-0.0260783741109553,-0.08571077079739656,0.4445581769472845,-0.1704057446848606,-0.489014511715113,-0.6179500886392749,0.006442520536981888,819.1575091575091,791.3553113553114,800.6227106227107,810.2930402930403,795.7875457875458,837.6923076923077,-0.236572,0.044128,0.963806,0.269165,-1.158905,-0.418701,1,1,1,1,1,92.000000
2025-03-25 17:37:50.424,0.5578314050304636,-0.0713634157630996,0.2805395648662933,0.4571642075566689,0.8284302321977032,-0.2935959305138899,-0.1881524933973648,0.9146346846857778,1.447291876946766,0.1612938933392447,-0.03877978829556304,1.50138923372358,0.3174411061158841,-0.0260783741109553,-0.08571077079739656,0.4445581769472845,-0.1704057446848606,-0.489014511715113,-0.6179500886392749,0.006442520536981888,803.4432234432235,794.1758241758242,801.025641025641,804.6520146520147,791.7582417582418,936.4102564102565,-0.236572,0.044128,0.963806,0.269165,-1.158905,-0.418701,1,1,1,1,1,92.000000
2025-03-25 17:37:50.424,0.5578314050304636,-0.0713634157630996,0.2805395648662933,0.4571642075566689,0.8284302321977032,-0.2935959305138899,-0.1881524933973648,0.9146346846857778,1.447291876946766,0.1612938933392447,-0.03877978829556304,1.50138923372358,0.3174411061158841,-0.0260783741109553,-0.08571077079739656,0.4445581769472845,-0.1704057446848606,-0.489014511715113,-0.6179500886392749,0.006442520536981888,773.6263736263736,793.7728937728938,799.0109890109891,783.2967032967033,825.6043956043957,934.3956043956044,-0.236572,0.044128,0.963806,0.269165,-1.158905,-0.418701,1,1,1,1,1,92.000000
2025-03-25 17:37:50.424,0.5578314050304636,-0.0713634157630996,0.2805395648662933,0.4571642075566689,0.8284302321977032,-0.2935959305138899,-0.1881524933973648,0.9146346846857778,1.447291876946766,0.1612938933392447,-0.03877978829556304,1.50138923372358,0.3174411061158841,-0.0260783741109553,-0.08571077079739656,0.4445581769472845,-0.1704057446848606,-0.489014511715113,-0.6179500886392749,0.006442520536981888,782.893772893773,792.1611721611722,799.0109890109891,790.5494505494506,837.6923076923077,705.934065934066,-0.236572,0.044128,0.963806,0.269165,-1.158905,-0.418701,1,1,1,1,1,92.000000
2025-03-25 17:37:50.425,0.5578314050304636,-0.0713634157630996,0.2805395648662933,0.4571642075566689,0.8284302321977032,-0.2935959305138899,-0.1881524933973648,0.9146346846857778,1.447291876946766,0.1612938933392447,-0.03877978829556304,1.50138923372358,0.3174411061158841,-0.0260783741109553,-0.08571077079739656,0.4445581769472845,-0.1704057446848606,-0.489014511715113,-0.6179500886392749,0.006442520536981888,807.8754578754579,790.5494505494506,800.6227106227107,809.4871794871796,799.8168498168499,599.1575091575091,-0.236572,0.044128,0.963806,0.269165,-1.158905,-0.418701,1,1,1,1,1,92.000000
2025-03-25 17:37:50.425,0.5578314050304636,-0.0713634157630996,0.2805395648662933,0.4571642075566689,0.8284302321977032,-0.2935959305138899,-0.1881524933973648,0.9146346846857778,1.447291876946766,0.1612938933392447,-0.03877978829556304,1.50138923372358,0.3174411061158841,-0.0260783741109553,-0.08571077079739656,0.4445581769472845,-0.1704057446848606,-0.489014511715113,-0.6179500886392749,0.006442520536981888,803.040293040293,791.3553113553114,803.040293040293,807.8754578754579,846.959706959707,662.4175824175825,-0.236572,0.044128,0.963806,0.269165,-1.158905,-0.418701,1,1,1,1,1,92.000000
2025-03-25 17:37:50.425,0.5578314050304636,-0.0713634157630996,0.2805395648662933,0.4571642075566689,0.8284302321977032,-0.2935959305138899,-0.1881524933973648,0.9146346846857778,1.447291876946766,0.1612938933392447,-0.03877978829556304,1.50138923372358,0.3174411061158841,-0.0260783741109553,-0.08571077079739656,0.4445581769472845,-0.1704057446848606,-0.489014511715113,-0.6179500886392749,0.006442520536981888,780.4761904761905,792.967032967033,805.8608058608058,795.7875457875458,838.901098901099,734.9450549450549,-0.236572,0.044128,0.963806,0.269165,-1.158905,-0.418701,1,1,1,1,1,92.000000
2025-03-25 17:37:50.426,0.5578314050304636,-0.0713634157630996,0.2805395648662933,0.4571642075566689,0.8284302321977032,-0.2935959305138899,-0.1881524933973648,0.9146346846857778,1.447291876946766,0.1612938933392447,-0.03877978829556304,1.50138923372358,0.3174411061158841,-0.0260783741109553,-0.08571077079739656,0.4445581769472845,-0.1704057446848606,-0.489014511715113,-0.6179500886392749,0.006442520536981888,777.2527472527473,794.981684981685,801.8315018315019,800.6227106227107,770.8058608058608,653.1501831501831,-0.236572,0.044128,0.963806,0.269165,-1.158905,-0.418701,1,1,1,1,1,92.000000
2025-03-25 17:37:50.426,0.5578314050304636,-0.0713634157630996,0.2805395648662933,0.4571642075566689,0.8284302321977032,-0.2935959305138899,-0.1881524933973648,0.9146346846857778,1.447291876946766,0.1612938933392447,-0.03877978829556304,1.50138923372358,0.3174411061158841,-0.0260783741109553,-0.08571077079739656,0.4445581769472845,-0.1704057446848606,-0.489014511715113,-0.6179500886392749,0.006442520536981888,796.5934065934066,793.3699633699634,803.4432234432235,814.3223443223443,714.7985347985348,611.6483516483516,-0.236572,0.044128,0.963806,0.269165,-1.158905,-0.418701,1,1,1,1,1,92.000000
2025-03-25 17:37:50.427,0.5578314050304636,-0.0713634157630996,0.2805395648662933,0.4571642075566689,0.8284302321977032,-0.2935959305138899,-0.1881524933973648,0.9146346846857778,1.447291876946766,0.1612938933392447,-0.03877978829556304,1.50138923372358,0.3174411061158841,-0.0260783741109553,-0.08571077079739656,0.4445581769472845,-0.1704057446848606,-0.489014511715113,-0.6179500886392749,0.006442520536981888,804.2490842490843,792.967032967033,803.8461538461539,803.040293040293,756.3003663003664,700.6959706959707,-0.236572,0.044128,0.963806,0.269165,-1.158905,-0.418701,1,1,1,1,1,92.000000
2025-03-25 17:37:50.427,0.5578314050304636,-0.0713634157630996,0.2805395648662933,0.4571642075566689,0.8284302321977032,-0.2935959305138899,-0.1881524933973648,0.9146346846857778,1.447291876946766,0.1612938933392447,-0.03877978829556304,1.50138923372358,0.3174411061158841,-0.0260783741109553,-0.08571077079739656,0.4445581769472845,-0.1704057446848606,-0.489014511715113,-0.6179500886392749,0.006442520536981888,790.5494505494506,795.7875457875458,803.8461538461539,796.1904761904763,840.1098901098901,720.4395604395604,-0.236572,0.044128,0.963806,0.269165,-1.158905,-0.418701,1,1,1,1,1,92.000000
2025-03-25 17:37:50.427,0.5578314050304636,-0.0713634157630996,0.2805395648662933,0.4571642075566689,0.8284302321977032,-0.2935959305138899,-0.1881524933973648,0.9146346846857778,1.447291876946766,0.1612938933392447,-0.03877978829556304,1.50138923372358,0.3174411061158841,-0.0260783741109553,-0.08571077079739656,0.4445581769472845,-0.1704057446848606,-0.489014511715113,-0.6179500886392749,0.006442520536981888,784.1025641025641,798.2051282051282,805.0549450549451,804.2490842490843,797.8021978021978,853.4065934065934,-0.236572,0.044128,0.963806,0.269165,-1.158905,-0.418701,1,1,1,1,1,92.000000
2025-03-25 17:37:50.427,0.5578314050304636,-0.0713634157630996,0.2805395648662933,0.4571642075566689,0.8284302321977032,-0.2935959305138899,-0.1881524933973648,0.9146346846857778,1.447291876946766,0.1612938933392447,-0.03877978829556304,1.50138923372358,0.3174411061158841,-0.0260783741109553,-0.08571077079739656,0.4445581769472845,-0.1704057446848606,-0.489014511715113,-0.6179500886392749,0.006442520536981888,800.6227106227107,798.6080586080586,796.1904761904763,814.3223443223443,736.959706959707,890.0732600732601,-0.236572,0.044128,0.963806,0.269165,-1.158905,-0.418701,1,1,1,1,1,92.000000
2025-03-25 17:37:50.428,0.5578314050304636,-0.0713634157630996,0.2805395648662933,0.4571642075566689,0.8284302321977032,-0.2935959305138899,-0.1881524933973648,0.9146346846857778,1.447291876946766,0.1612938933392447,-0.03877978829556304,1.50138923372358,0.3174411061158841,-0.0260783741109553,-0.08571077079739656,0.4445581769472845,-0.1704057446848606,-0.489014511715113,-0.6179500886392749,0.006442520536981888,815.1282051282052,800.6227106227107,803.4432234432235,817.5457875457876,758.7179487179487,934.3956043956044,-0.236572,0.044128,0.963806,0.269165,-1.158905,-0.418701,1,1,1,1,1,92.000000
2025-03-25 17:37:50.428,0.5578314050304636,-0.0713634157630996,0.2805395648662933,0.4571642075566689,0.8284302321977032,-0.2935959305138899,-0.1881524933973648,0.9146346846857778,1.447291876946766,0.1612938933392447,-0.03877978829556304,1.50138923372358,0.3174411061158841,-0.0260783741109553,-0.08571077079739656,0.4445581769472845,-0.1704057446848606,-0.489014511715113,-0.6179500886392749,0.006442520536981888,803.040293040293,800.2197802197802,804.6520146520147,807.0695970695971,739.3772893772893,904.1758241758242,-0.236572,0.044128,0.963806,0.269165,-1.158905,-0.418701,1,1,1,1,1,92.000000
2025-03-25 17:37:50.428,0.5578314050304636,-0.0713634157630996,0.2805395648662933,0.4571642075566689,0.8284302321977032,-0.2935959305138899,-0.1881524933973648,0.9146346846857778,1.447291876946766,0.1612938933392447,-0.03877978829556304,1.50138923372358,0.3174411061158841,-0.0260783741109553,-0.08571077079739656,0.4445581769472845,-0.1704057446848606,-0.489014511715113,-0.6179500886392749,0.006442520536981888,782.4908424908425,796.5934065934066,798.6080586080586,793.3699633699634,761.1355311355312,640.2564102564103,-0.236572,0.044128,0.963806,0.269165,-1.158905,-0.418701,1,1,1,1,1,92.000000
2025-03-25 17:37:50.428,0.5584282799682446,-0.07105989063033176,0.3019322852104207,0.4707033803848713,0.8129424051762008,-0.283600363255848,-0.1518221233157878,0.9024073173306625,1.446008323512184,0.23973039911117,0.03219056943614221,1.500758395621761,0.3044732665636543,-0.02543856561083547,-0.08074144403020976,0.429006321629132,-0.1711118727979183,-0.4712869060106505,-0.6091196127243207,-0.0009850849308509998,789.7435897435897,794.981684981685,805.0549450549451,794.981684981685,813.5164835164835,585.4578754578755,-0.236572,0.044128,0.963806,0.269165,-1.158905,-0.418701,1,1,1,1,1,92.000000
2025-03-25 17:37:50.429,0.5584282799682446,-0.07105989063033176,0.3019322852104207,0.4707033803848713,0.8129424051762008,-0.283600363255848,-0.1518221233157878,0.9024073173306625,1.446008323512184,0.23973039911117,0.03219056943614221,1.500758395621761,0.3044732665636543,-0.02543856561083547,-0.08074144403020976,0.429006321629132,-0.1711118727979183,-0.4712869060106505,-0.6091196127243207,-0.0009850849308509998,810.6959706959707,796.996336996337,805.8608058608058,805.8608058608058,803.8461538461539,611.6483516483516,-0.236572,0.044128,0.963806,0.269165,-1.158905,-0.418701,1,1,1,1,1,92.000000
2025-03-25 17:37:50.429,0.5584282799682446,-0.07105989063033176,0.3019322852104207,0.4707033803848713,0.8129424051762008,-0.283600363255848,-0.1518221233157878,0.9024073173306625,1.446008323512184,0.23973039911117,0.03219056943614221,1.500758395621761,0.3044732665636543,-0.02543856561083547,-0.08074144403020976,0.429006321629132,-0.1711118727979183,-0.4712869060106505,-0.6091196127243207,-0.0009850849308509998,811.9047619047619,796.5934065934066,803.4432234432235,805.0549450549451,829.2307692307693,778.4615384615385,-0.236572,0.044128,0.963806,0.269165,-1.158905,-0.418701,1,1,1,1,1,92.000000
2025-03-25 17:37:50.430,0.5584282799682446,-0.07105989063033176,0.3019322852104207,0.4707033803848713,0.8129424051762008,-0.283600363255848,-0.1518221233157878,0.9024073173306625,1.446008323512184,0.23973039911117,0.03219056943614221,1.500758395621761,0.3044732665636543,-0.02543856561083547,-0.08074144403020976,0.429006321629132,-0.1711118727979183,-0.4712869060106505,-0.6091196127243207,-0.0009850849308509998,782.4908424908425,790.1465201465202,801.8315018315019,790.5494505494506,840.9157509157509,784.1025641025641,-0.237488,0.039001,0.966003,0.119629,-0.822449,-0.022430,1,1,1,1,1,92.000000
2025-03-25 17:37:50.430,0.5584282799682446,-0.07105989063033176,0.3019322852104207,0.4707033803848713,0.8129424051762008,-0.283600363255848,-0.1518221233157878,0.9024073173306625,1.446008323512184,0.23973039911117,0.03219056943614221,1.500758395621761,0.3044732665636543,-0.02543856561083547,-0.08074144403020976,0.429006321629132,-0.1711118727979183,-0.4712869060106505,-0.6091196127243207,-0.0009850849308509998,782.4908424908425,787.7289377289378,803.040293040293,794.981684981685,830.4395604395604,677.7289377289377,-0.237488,0.039001,0.966003,0.119629,-0.822449,-0.022430,1,1,1,1,1,92.000000
2025-03-25 17:37:50.430,0.5584282799682446,-0.07105989063033176,0.3019322852104207,0.4707033803848713,0.8129424051762008,-0.283600363255848,-0.1518221233157878,0.9024073173306625,1.446008323512184,0.23973039911117,0.03219056943614221,1.500758395621761,0.3044732665636543,-0.02543856561083547,-0.08074144403020976,0.429006321629132,-0.1711118727979183,-0.4712869060106505,-0.6091196127243207,-0.0009850849308509998,821.978021978022,795.7875457875458,805.0549450549451,812.7106227106227,820.3663003663004,942.0512820512821,-0.237488,0.039001,0.966003,0.119629,-0.822449,-0.022430,1,1,1,1,1,92.000000
2025-03-25 17:37:50.430,0.5584282799682446,-0.07105989063033176,0.3019322852104207,0.4707033803848713,0.8129424051762008,-0.283600363255848,-0.1518221233157878,0.9024073173306625,1.446008323512184,0.23973039911117,0.03219056943614221,1.500758395621761,0.3044732665636543,-0.02543856561083547,-0.08074144403020976,0.429006321629132,-0.1711118727979183,-0.4712869060106505,-0.6091196127243207,-0.0009850849308509998,826.8131868131868,803.040293040293,798.6080586080586,810.6959706959707,795.7875457875458,935.2014652014652,-0.237488,0.039001,0.966003,0.119629,-0.822449,-0.022430,1,1,1,1,1,92.000000
2025-03-25 17:37:50.430,0.5584282799682446,-0.07105989063033176,0.3019322852104207,0.4707033803848713,0.8129424051762008,-0.283600363255848,-0.1518221233157878,0.9024073173306625,1.446008323512184,0.23973039911117,0.03219056943614221,1.500758395621761,0.3044732665636543,-0.02543856561083547,-0.08074144403020976,0.429006321629132,-0.1711118727979183,-0.4712869060106505,-0.6091196127243207,-0.0009850849308509998,800.2197802197802,806.2637362637363,798.2051282051282,801.8315018315019,802.6373626373627,758.3150183150184,-0.237488,0.039001,0.966003,0.119629,-0.822449,-0.022430,1,1,1,1,1,92.000000
2025-03-25 17:37:50.431,0.5584282799682446,-0.07105989063033176,0.3019322852104207,0.4707033803848713,0.8129424051762008,-0.283600363255848,-0.1518221233157878,0.9024073173306625,1.446008323512184,0.23973039911117,0.03219056943614221,1.500758395621761,0.3044732665636543,-0.02543856561083547,-0.08074144403020976,0.429006321629132,-0.1711118727979183,-0.4712869060106505,-0.6091196127243207,-0.0009850849308509998,795.7875457875458,801.4285714285714,797.8021978021978,801.025641025641,780.8791208791209,861.0622710622711,-0.237488,0.039001,0.966003,0.119629,-0.822449,-0.022430,1,1,1,1,1,92.000000
2025-03-25 17:37:50.431,0.5584282799682446,-0.07105989063033176,0.3019322852104207,0.4707033803848713,0.8129424051762008,-0.283600363255848,-0.1518221233157878,0.9024073173306625,1.446008323512184,0.23973039911117,0.03219056943614221,1.500758395621761,0.3044732665636543,-0.02543856561083547,-0.08074144403020976,0.429006321629132,-0.1711118727979183,-0.4712869060106505,-0.6091196127243207,-0.0009850849308509998,809.0842490842491,793.7728937728938,797.8021978021978,801.025641025641,759.92673992674,935.6043956043957,-0.237488,0.039001,0.966003,0.119629,-0.822449,-0.022430,1,1,1,1,1,92.000000
2025-03-25 17:37:50.431,0.5584282799682446,-0.07105989063033176,0.3019322852104207,0.4707033803848713,0.8129424051762008,-0.283600363255848,-0.1518221233157878,0.9024073173306625,1.446008323512184,0.23973039911117,0.03219056943614221,1.500758395621761,0.3044732665636543,-0.02543856561083547,-0.08074144403020976,0.429006321629132,-0.1711118727979183,-0.4712869060106505,-0.6091196127243207,-0.0009850849308509998,812.3076923076924,791.7582417582418,797.3992673992674,809.8901098901099,751.0622710622711,871.5384615384615,-0.237488,0.039001,0.966003,0.119629,-0.822449,-0.022430,1,1,1,1,1,92.000000
2025-03-25 17:37:50.432,0.5584282799682446,-0.07105989063033176,0.3019322852104207,0.4707033803848713,0.8129424051762008,-0.283600363255848,-0.1518221233157878,0.9024073173306625,1.446008323512184,0.23973039911117,0.03219056943614221,1.500758395621761,0.3044732665636543,-0.02543856561083547,-0.08074144403020976,0.429006321629132,-0.1711118727979183,-0.4712869060106505,-0.6091196127243207,-0.0009850849308509998,793.3699633699634,792.967032967033,798.2051282051282,805.4578754578755,845.7509157509157,934.3956043956044,-0.237488,0.039001,0.966003,0.119629,-0.822449,-0.022430,1,1,1,1,1,92.000000
2025-03-25 17:37:50.432,0.5584282799682446,-0.07105989063033176,0.3019322852104207,0.4707033803848713,0.8129424051762008,-0.283600363255848,-0.1518221233157878,0.9024073173306625,1.446008323512184,0.23973039911117,0.03219056943614221,1.500758395621761,0.3044732665636543,-0.02543856561083547,-0.08074144403020976,0.429006321629132,-0.1711118727979183,-0.4712869060106505,-0.6091196127243207,-0.0009850849308509998,770.4029304029305,794.1758241758242,799.4139194139194,795.7875457875458,904.1758241758242,928.3516483516484,-0.237488,0.039001,0.966003,0.119629,-0.822449,-0.022430,1,1,1,1,1,92.000000
2025-03-25 17:37:50.432,0.5584282799682446,-0.07105989063033176,0.3019322852104207,0.4707033803848713,0.8129424051762008,-0.283600363255848,-0.1518221233157878,0.9024073173306625,1.446008323512184,0.23973039911117,0.03219056943614221,1.500758395621761,0.3044732665636543,-0.02543856561083547,-0.08074144403020976,0.429006321629132,-0.1711118727979183,-0.4712869060106505,-0.6091196127243207,-0.0009850849308509998,788.5347985347986,795.7875457875458,799.4139194139194,796.5934065934066,895.7142857142858,778.8644688644689,-0.237488,0.039001,0.966003,0.119629,-0.822449,-0.022430,1,1,1,1,1,92.000000
2025-03-25 17:37:50.432,0.5584282799682446,-0.07105989063033176,0.3019322852104207,0.4707033803848713,0.8129424051762008,-0.283600363255848,-0.1518221233157878,0.9024073173306625,1.446008323512184,0.23973039911117,0.03219056943614221,1.500758395621761,0.3044732665636543,-0.02543856561083547,-0.08074144403020976,0.429006321629132,-0.1711118727979183,-0.4712869060106505,-0.6091196127243207,-0.0009850849308509998,809.8901098901099,800.6227106227107,802.6373626373627,806.6666666666667,824.3956043956044,717.2161172161173,-0.237488,0.039001,0.966003,0.119629,-0.822449,-0.022430,1,1,1,1,1,92.000000
2025-03-25 17:37:50.433,0.5584282799682446,-0.07105989063033176,0.3019322852104207,0.4707033803848713,0.8129424051762008,-0.283600363255848,-0.1518221233157878,0.9024073173306625,1.446008323512184,0.23973039911117,0.03219056943614221,1.500758395621761,0.3044732665636543,-0.02543856561083547,-0.08074144403020976,0.429006321629132,-0.1711118727979183,-0.4712869060106505,-0.6091196127243207,-0.0009850849308509998,794.981684981685,798.6080586080586,800.2197802197802,805.0549450549451,775.2380952380953,693.4432234432235,-0.239014,0.042847,0.967041,0.209351,-0.934601,0.239258,1,1,1,1,1,92.000000
2025-03-25 17:37:50.433,0.5584282799682446,-0.07105989063033176,0.3019322852104207,0.4707033803848713,0.8129424051762008,-0.283600363255848,-0.1518221233157878,0.9024073173306625,1.446008323512184,0.23973039911117,0.03219056943614221,1.500758395621761,0.3044732665636543,-0.02543856561083547,-0.08074144403020976,0.429006321629132,-0.1711118727979183,-0.4712869060106505,-0.6091196127243207,-0.0009850849308509998,774.0293040293041,796.1904761904763,803.4432234432235,790.952380952381,864.2857142857143,682.5641025641025,-0.239014,0.042847,0.967041,0.209351,-0.934601,0.239258,1,1,1,1,1,92.000000
2025-03-25 17:37:50.434,0.5584282799682446,-0.07105989063033176,0.3019322852104207,0.4707033803848713,0.8129424051762008,-0.283600363255848,-0.1518221233157878,0.9024073173306625,1.446008323512184,0.23973039911117,0.03219056943614221,1.500758395621761,0.3044732665636543,-0.02543856561083547,-0.08074144403020976,0.429006321629132,-0.1711118727979183,-0.4712869060106505,-0.6091196127243207,-0.0009850849308509998,783.2967032967033,799.4139194139194,804.2490842490843,796.996336996337,851.3919413919414,663.2234432234433,-0.239014,0.042847,0.967041,0.209351,-0.934601,0.239258,1,1,1,1,1,92.000000
2025-03-25 17:37:50.434,0.5584282799682446,-0.07105989063033176,0.3019322852104207,0.4707033803848713,0.8129424051762008,-0.283600363255848,-0.1518221233157878,0.9024073173306625,1.446008323512184,0.23973039911117,0.03219056943614221,1.500758395621761,0.3044732665636543,-0.02543856561083547,-0.08074144403020976,0.429006321629132,-0.1711118727979183,-0.4712869060106505,-0.6091196127243207,-0.0009850849308509998,805.0549450549451,798.6080586080586,799.4139194139194,806.6666666666667,795.3846153846154,716.8131868131868,-0.239014,0.042847,0.967041,0.209351,-0.934601,0.239258,1,1,1,1,1,92.000000
2025-03-25 17:37:50.434,0.5584282799682446,-0.07105989063033176,0.3019322852104207,0.4707033803848713,0.8129424051762008,-0.283600363255848,-0.1518221233157878,0.9024073173306625,1.446008323512184,0.23973039911117,0.03219056943614221,1.500758395621761,0.3044732665636543,-0.02543856561083547,-0.08074144403020976,0.429006321629132,-0.1711118727979183,-0.4712869060106505,-0.6091196127243207,-0.0009850849308509998,802.2344322344322,794.1758241758242,796.1904761904763,801.025641025641,772.8205128205128,719.6336996336996,-0.239014,0.042847,0.967041,0.209351,-0.934601,0.239258,1,1,1,1,1,92.000000
2025-03-25 17:37:50.434,0.5584282799682446,-0.07105989063033176,0.3019322852104207,0.4707033803848713,0.8129424051762008,-0.283600363255848,-0.1518221233157878,0.9024073173306625,1.446008323512184,0.23973039911117,0.03219056943614221,1.500758395621761,0.3044732665636543,-0.02543856561083547,-0.08074144403020976,0.429006321629132,-0.1711118727979183,-0.4712869060106505,-0.6091196127243207,-0.0009850849308509998,778.4615384615385,794.1758241758242,796.1904761904763,786.9230769230769,745.4212454212454,787.3260073260074,-0.239014,0.042847,0.967041,0.209351,-0.934601,0.239258,1,1,1,1,1,92.000000
2025-03-25 17:37:50.435,0.5584282799682446,-0.07105989063033176,0.3019322852104207,0.4707033803848713,0.8129424051762008,-0.283600363255848,-0.1518221233157878,0.9024073173306625,1.446008323512184,0.23973039911117,0.03219056943614221,1.500758395621761,0.3044732665636543,-0.02543856561083547,-0.08074144403020976,0.429006321629132,-0.1711118727979183,-0.4712869060106505,-0.6091196127243207,-0.0009850849308509998,780.4761904761905,797.3992673992674,798.6080586080586,789.3406593406594,785.3113553113553,994.8351648351648,-0.239014,0.042847,0.967041,0.209351,-0.934601,0.239258,1,1,1,1,1,92.000000
2025-03-25 17:37:50.435,0.5584282799682446,-0.07105989063033176,0.3019322852104207,0.4707033803848713,0.8129424051762008,-0.283600363255848,-0.1518221233157878,0.9024073173306625,1.446008323512184,0.23973039911117,0.03219056943614221,1.500758395621761,0.3044732665636543,-0.02543856561083547,-0.08074144403020976,0.429006321629132,-0.1711118727979183,-0.4712869060106505,-0.6091196127243207,-0.0009850849308509998,803.040293040293,799.0109890109891,801.4285714285714,797.8021978021978,858.6446886446887,954.1391941391942,-0.239014,0.042847,0.967041,0.209351,-0.934601,0.239258,1,1,1,1,1,92.000000
2025-03-25 17:37:50.435,0.5584282799682446,-0.07105989063033176,0.3019322852104207,0.4707033803848713,0.8129424051762008,-0.283600363255848,-0.1518221233157878,0.9024073173306625,1.446008323512184,0.23973039911117,0.03219056943614221,1.500758395621761,0.3044732665636543,-0.02543856561083547,-0.08074144403020976,0.429006321629132,-0.1711118727979183,-0.4712869060106505,-0.6091196127243207,-0.0009850849308509998,799.0109890109891,798.2051282051282,798.6080586080586,792.967032967033,854.2124542124542,753.8827838827839,-0.239014,0.042847,0.967041,0.209351,-0.934601,0.239258,1,1,1,1,1,92.000000
2025-03-25 17:37:50.435,0.5584282799682446,-0.07105989063033176,0.3019322852104207,0.4707033803848713,0.8129424051762008,-0.283600363255848,-0.1518221233157878,0.9024073173306625,1.446008323512184,0.23973039911117,0.03219056943614221,1.500758395621761,0.3044732665636543,-0.02543856561083547,-0.08074144403020976,0.429006321629132,-0.1711118727979183,-0.4712869060106505,-0.6091196127243207,-0.0009850849308509998,775.6410256410256,793.7728937728938,796.5934065934066,784.5054945054945,800.2197802197802,620.9157509157509,-0.239014,0.042847,0.967041,0.209351,-0.934601,0.239258,1,1,1,1,1,92.000000
2025-03-25 17:37:50.436,0.5584282799682446,-0.07105989063033176,0.3019322852104207,0.4707033803848713,0.8129424051762008,-0.283600363255848,-0.1518221233157878,0.9024073173306625,1.446008323512184,0.23973039911117,0.03219056943614221,1.500758395621761,0.3044732665636543,-0.02543856561083547,-0.08074144403020976,0.429006321629132,-0.1711118727979183,-0.4712869060106505,-0.6091196127243207,-0.0009850849308509998,773.6263736263736,793.7728937728938,801.025641025641,784.1025641025641,799.8168498168499,560.0732600732601,-0.239014,0.042847,0.967041,0.209351,-0.934601,0.239258,1,1,1,1,1,92.000000
2025-03-25 17:37:50.436,0.5697831014076404,-0.070797098424669,0.3221482500232293,0.4727313446543975,0.793363953622058,-0.2564202475037559,-0.123108459629736,0.882845949888091,1.438229114458329,0.2949365421941224,0.09261930310838493,1.500259868698938,0.2904616955674173,-0.02609675081916928,-0.0798690236952098,0.4115544108540403,-0.1667458289504125,-0.4540162984165783,-0.6085293008371292,-0.0039576571818972,800.6227106227107,798.2051282051282,800.6227106227107,797.8021978021978,777.6556776556777,825.2014652014652,-0.239014,0.042847,0.967041,0.209351,-0.934601,0.239258,1,1,1,1,1,92.000000
2025-03-25 17:37:50.458,0.5697831014076404,-0.070797098424669,0.3221482500232293,0.4727313446543975,0.793363953622058,-0.2564202475037559,-0.123108459629736,0.882845949888091,1.438229114458329,0.2949365421941224,0.09261930310838493,1.500259868698938,0.2904616955674173,-0.02609675081916928,-0.0798690236952098,0.4115544108540403,-0.1667458289504125,-0.4540162984165783,-0.6085293008371292,-0.0039576571818972,813.1135531135532,798.2051282051282,798.2051282051282,796.5934065934066,761.941391941392,878.7912087912089,-0.238220,0.043701,0.960449,0.403748,-0.814972,0.246735,1,1,1,1,1,92.000000
2025-03-25 17:37:50.459,0.5697831014076404,-0.070797098424669,0.3221482500232293,0.4727313446543975,0.793363953622058,-0.2564202475037559,-0.123108459629736,0.882845949888091,1.438229114458329,0.2949365421941224,0.09261930310838493,1.500259868698938,0.2904616955674173,-0.02609675081916928,-0.0798690236952098,0.4115544108540403,-0.1667458289504125,-0.4540162984165783,-0.6085293008371292,-0.0039576571818972,799.4139194139194,796.5934065934066,798.6080586080586,785.7142857142858,773.6263736263736,694.2490842490843,-0.238220,0.043701,0.960449,0.403748,-0.814972,0.246735,1,1,1,1,1,92.000000
2025-03-25 17:37:50.459,0.5697831014076404,-0.070797098424669,0.3221482500232293,0.4727313446543975,0.793363953622058,-0.2564202475037559,-0.123108459629736,0.882845949888091,1.438229114458329,0.2949365421941224,0.09261930310838493,1.500259868698938,0.2904616955674173,-0.02609675081916928,-0.0798690236952098,0.4115544108540403,-0.1667458289504125,-0.4540162984165783,-0.6085293008371292,-0.0039576571818972,782.0879120879121,798.6080586080586,800.2197802197802,778.4615384615385,743.4065934065934,885.6410256410256,-0.238220,0.043701,0.960449,0.403748,-0.814972,0.246735,1,1,1,1,1,92.000000
2025-03-25 17:37:50.459,0.5697831014076404,-0.070797098424669,0.3221482500232293,0.4727313446543975,0.793363953622058,-0.2564202475037559,-0.123108459629736,0.882845949888091,1.438229114458329,0.2949365421941224,0.09261930310838493,1.500259868698938,0.2904616955674173,-0.02609675081916928,-0.0798690236952098,0.4115544108540403,-0.1667458289504125,-0.4540162984165783,-0.6085293008371292,-0.0039576571818972,801.025641025641,801.4285714285714,799.0109890109891,786.1172161172161,800.6227106227107,888.8644688644689,-0.238220,0.043701,0.960449,0.403748,-0.814972,0.246735,1,1,1,1,1,92.000000
2025-03-25 17:37:50.459,0.5697831014076404,-0.070797098424669,0.3221482500232293,0.4727313446543975,0.793363953622058,-0.2564202475037559,-0.123108459629736,0.882845949888091,1.438229114458329,0.2949365421941224,0.09261930310838493,1.500259868698938,0.2904616955674173,-0.02609675081916928,-0.0798690236952098,0.4115544108540403,-0.1667458289504125,-0.4540162984165783,-0.6085293008371292,-0.0039576571818972,829.6336996336996,801.8315018315019,803.8461538461539,801.8315018315019,827.6190476190476,816.3369963369963,-0.238220,0.043701,0.960449,0.403748,-0.814972,0.246735,1,1,1,1,1,92.000000
2025-03-25 17:37:50.460,0.5697831014076404,-0.070797098424669,0.3221482500232293,0.4727313446543975,0.793363953622058,-0.2564202475037559,-0.123108459629736,0.882845949888091,1.438229114458329,0.2949365421941224,0.09261930310838493,1.500259868698938,0.2904616955674173,-0.02609675081916928,-0.0798690236952098,0.4115544108540403,-0.1667458289504125,-0.4540162984165783,-0.6085293008371292,-0.0039576571818972,816.3369963369963,800.2197802197802,803.4432234432235,786.1172161172161,793.3699633699634,878.3882783882784,-0.238220,0.043701,0.960449,0.403748,-0.814972,0.246735,1,1,1,1,1,92.000000
2025-03-25 17:37:50.460,0.5697831014076404,-0.070797098424669,0.3221482500232293,0.4727313446543975,0.793363953622058,-0.2564202475037559,-0.123108459629736,0.882845949888091,1.438229114458329,0.2949365421941224,0.09261930310838493,1.500259868698938,0.2904616955674173,-0.02609675081916928,-0.0798690236952098,0.4115544108540403,-0.1667458289504125,-0.4540162984165783,-0.6085293008371292,-0.0039576571818972,788.9377289377289,796.996336996337,802.6373626373627,777.2527472527473,798.6080586080586,1038.754578754579,-0.238220,0.043701,0.960449,0.403748,-0.814972,0.246735,1,1,1,1,1,92.000000
2025-03-25 17:37:50.460,0.5697831014076404,-0.070797098424669,0.3221482500232293,0.4727313446543975,0.793363953622058,-0.2564202475037559,-0.123108459629736,0.882845949888091,1.438229114458329,0.2949365421941224,0.09261930310838493,1.500259868698938,0.2904616955674173,-0.02609675081916928,-0.0798690236952098,0.4115544108540403,-0.1667458289504125,-0.4540162984165783,-0.6085293008371292,-0.0039576571818972,797.8021978021978,795.7875457875458,806.6666666666667,796.996336996337,787.7289377289378,881.2087912087912,-0.238220,0.043701,0.960449,0.403748,-0.814972,0.246735,1,1,1,1,1,92.000000
2025-03-25 17:37:50.461,0.5697831014076404,-0.070797098424669,0.3221482500232293,0.4727313446543975,0.793363953622058,-0.2564202475037559,-0.123108459629736,0.882845949888091,1.438229114458329,0.2949365421941224,0.09261930310838493,1.500259868698938,0.2904616955674173,-0.02609675081916928,-0.0798690236952098,0.4115544108540403,-0.1667458289504125,-0.4540162984165783,-0.6085293008371292,-0.0039576571818972,819.5604395604396,796.1904761904763,804.6520146520147,811.5018315018315,775.2380952380953,645.0915750915751,-0.238220,0.043701,0.960449,0.403748,-0.814972,0.246735,1,1,1,1,1,92.000000
2025-03-25 17:37:50.461,0.5697831014076404,-0.070797098424669,0.3221482500232293,0.4727313446543975,0.793363953622058,-0.2564202475037559,-0.123108459629736,0.882845949888091,1.438229114458329,0.2949365421941224,0.09261930310838493,1.500259868698938,0.2904616955674173,-0.02609675081916928,-0.0798690236952098,0.4115544108540403,-0.1667458289504125,-0.4540162984165783,-0.6085293008371292,-0.0039576571818972,819.96336996337,799.0109890109891,802.2344322344322,813.5164835164835,761.941391941392,575.3846153846154,-0.238220,0.043701,0.960449,0.403748,-0.814972,0.246735,1,1,1,1,1,92.000000
2025-03-25 17:37:50.461,0.5697831014076404,-0.070797098424669,0.3221482500232293,0.4727313446543975,0.793363953622058,-0.2564202475037559,-0.123108459629736,0.882845949888091,1.438229114458329,0.2949365421941224,0.09261930310838493,1.500259868698938,0.2904616955674173,-0.02609675081916928,-0.0798690236952098,0.4115544108540403,-0.1667458289504125,-0.4540162984165783,-0.6085293008371292,-0.0039576571818972,794.981684981685,799.4139194139194,806.6666666666667,804.2490842490843,830.4395604395604,618.4981684981685,-0.238220,0.043701,0.960449,0.403748,-0.814972,0.246735,1,1,1,1,1,92.000000
2025-03-25 17:37:50.461,0.5697831014076404,-0.070797098424669,0.3221482500232293,0.4727313446543975,0.793363953622058,-0.2564202475037559,-0.123108459629736,0.882845949888091,1.438229114458329,0.2949365421941224,0.09261930310838493,1.500259868698938,0.2904616955674173,-0.02609675081916928,-0.0798690236952098,0.4115544108540403,-0.1667458289504125,-0.4540162984165783,-0.6085293008371292,-0.0039576571818972,784.9084249084249,800.2197802197802,802.6373626373627,801.4285714285714,831.2454212454213,698.2783882783883,-0.238220,0.043701,0.960449,0.403748,-0.814972,0.246735,1,1,1,1,1,92.000000
2025-03-25 17:37:50.462,0.5697831014076404,-0.070797098424669,0.3221482500232293,0.4727313446543975,0.793363953622058,-0.2564202475037559,-0.123108459629736,0.882845949888091,1.438229114458329,0.2949365421941224,0.09261930310838493,1.500259868698938,0.2904616955674173,-0.02609675081916928,-0.0798690236952098,0.4115544108540403,-0.1667458289504125,-0.4540162984165783,-0.6085293008371292,-0.0039576571818972,806.6666666666667,802.6373626373627,797.3992673992674,817.948717948718,821.1721611721612,742.1978021978023,-0.238220,0.043701,0.960449,0.403748,-0.814972,0.246735,1,1,1,1,1,92.000000
2025-03-25 17:37:50.462,0.5697831014076404,-0.070797098424669,0.3221482500232293,0.4727313446543975,0.793363953622058,-0.2564202475037559,-0.123108459629736,0.882845949888091,1.438229114458329,0.2949365421941224,0.09261930310838493,1.500259868698938,0.2904616955674173,-0.02609675081916928,-0.0798690236952098,0.4115544108540403,-0.1667458289504125,-0.4540162984165783,-0.6085293008371292,-0.0039576571818972,810.6959706959707,797.8021978021978,807.8754578754579,818.7545787545788,856.6300366300367,688.2051282051282,-0.238220,0.043701,0.960449,0.403748,-0.814972,0.246735,1,1,1,1,1,92.000000
2025-03-25 17:37:50.463,0.5697831014076404,-0.070797098424669,0.3221482500232293,0.4727313446543975,0.793363953622058,-0.2564202475037559,-0.123108459629736,0.882845949888091,1.438229114458329,0.2949365421941224,0.09261930310838493,1.500259868698938,0.2904616955674173,-0.02609675081916928,-0.0798690236952098,0.4115544108540403,-0.1667458289504125,-0.4540162984165783,-0.6085293008371292,-0.0039576571818972,790.5494505494506,797.3992673992674,811.9047619047619,803.4432234432235,773.2234432234433,652.3443223443223,-0.238220,0.043701,0.960449,0.403748,-0.814972,0.246735,1,1,1,1,1,92.000000
2025-03-25 17:37:50.463,0.5697831014076404,-0.070797098424669,0.3221482500232293,0.4727313446543975,0.793363953622058,-0.2564202475037559,-0.123108459629736,0.882845949888091,1.438229114458329,0.2949365421941224,0.09261930310838493,1.500259868698938,0.2904616955674173,-0.02609675081916928,-0.0798690236952098,0.4115544108540403,-0.1667458289504125,-0.4540162984165783,-0.6085293008371292,-0.0039576571818972,782.0879120879121,799.0109890109891,804.6520146520147,799.4139194139194,700.6959706959707,807.8754578754579,-0.238220,0.043701,0.960449,0.403748,-0.814972,0.246735,1,1,1,1,1,92.000000
2025-03-25 17:37:50.463,0.5697831014076404,-0.070797098424669,0.3221482500232293,0.4727313446543975,0.793363953622058,-0.2564202475037559,-0.123108459629736,0.882845949888091,1.438229114458329,0.2949365421941224,0.09261930310838493,1.500259868698938,0.2904616955674173,-0.02609675081916928,-0.0798690236952098,0.4115544108540403,-0.1667458289504125,-0.4540162984165783,-0.6085293008371292,-0.0039576571818972,803.040293040293,799.0109890109891,803.8461538461539,807.8754578754579,745.4212454212454,741.3919413919414,-0.238220,0.043701,0.960449,0.403748,-0.814972,0.246735,1,1,1,1,1,92.000000
2025-03-25 17:37:50.464,0.5697831014076404,-0.070797098424669,0.3221482500232293,0.4727313446543975,0.793363953622058,-0.2564202475037559,-0.123108459629736,0.882845949888091,1.438229114458329,0.2949365421941224,0.09261930310838493,1.500259868698938,0.2904616955674173,-0.02609675081916928,-0.0798690236952098,0.4115544108540403,-0.1667458289504125,-0.4540162984165783,-0.6085293008371292,-0.0039576571818972,814.7252747252747,799.0109890109891,807.0695970695971,809.4871794871796,775.2380952380953,823.5897435897436,-0.238220,0.043701,0.960449,0.403748,-0.814972,0.246735,1,1,1,1,1,92.000000
2025-03-25 17:37:50.464,0.5697831014076404,-0.070797098424669,0.3221482500232293,0.4727313446543975,0.793363953622058,-0.2564202475037559,-0.123108459629736,0.882845949888091,1.438229114458329,0.2949365421941224,0.09261930310838493,1.500259868698938,0.2904616955674173,-0.02609675081916928,-0.0798690236952098,0.4115544108540403,-0.1667458289504125,-0.4540162984165783,-0.6085293008371292,-0.0039576571818972,796.1904761904763,799.4139194139194,805.8608058608058,799.0109890109891,757.5091575091575,1018.205128205128,-0.238220,0.043701,0.960449,0.403748,-0.814972,0.246735,1,1,1,1,1,92.000000
2025-03-25 17:37:50.464,0.5697831014076404,-0.070797098424669,0.3221482500232293,0.4727313446543975,0.793363953622058,-0.2564202475037559,-0.123108459629736,0.882845949888091,1.438229114458329,0.2949365421941224,0.09261930310838493,1.500259868698938,0.2904616955674173,-0.02609675081916928,-0.0798690236952098,0.4115544108540403,-0.1667458289504125,-0.4540162984165783,-0.6085293008371292,-0.0039576571818972,777.6556776556777,801.4285714285714,801.4285714285714,787.7289377289378,813.1135531135532,956.1538461538462,-0.238220,0.043701,0.960449,0.403748,-0.814972,0.246735,1,1,1,1,1,92.000000
